*FILE_COMMENT	""
*FILE_MD5	""
*FILE_MEMO	"Niフィルターなし"
*FILE_OPERATOR	"Administrator"
*FILE_PACKAGE_NAME	""
*FILE_PART_ID	"GeneralMeasurement"
*FILE_SAMPLE	"Cu"
*FILE_SYSTEM_NAME	"MiniFlex"
*FILE_TYPE	"RAS_RAW"
*FILE_USERGROUP	"Administrators"
*FILE_VERSION	"1"
*HW_ATTACHMENT_NAME_INTERNAL	"StandardSampleHolder"
*HW_COUNTER_ID-0	"CUT0025"
*HW_COUNTER_ID-2	"CMC0020"
*HW_COUNTER_MONOCHRO_ID	"CMC0020"
*HW_COUNTER_MONOCHRO_NAME	"None"
*HW_COUNTER_MONOCHRO_NAME_INTERNAL	"None"
*HW_COUNTER_NAME_INTERNAL	"DteX100"
*HW_COUNTER_NAME-0	"DteX100"
*HW_COUNTER_NAME-1	"None"
*HW_COUNTER_NAME-2	"None"
*HW_COUNTER_PIXEL_SIZE	"0.1"
*HW_COUNTER_SELECT_NAME	"DteX100"
*HW_GONIOMETER_ID	"GON0021"
*HW_GONIOMETER_NAME	"Standard"
*HW_GONIOMETER_NAME_INTERNAL	"Standard"
*HW_GONIOMETER_RADIUS-0	"90.0"
*HW_GONIOMETER_RADIUS-1	"114.0"
*HW_GONIOMETER_RADIUS-2	"91.5"
*HW_GONIOMETER_RADIUS-3	"150.0"
*HW_GONIOMETER_RADIUS-4	"103.4"
*HW_GONIOMETER_RADIUS-5	"150.0"
*HW_GONIOMETER_RADIUS-6	"46.6"
*HW_GONIOMETER_RADIUS-7	"150.0"
*HW_I_CBO_ID	"CBO0020"
*HW_I_CBO_NAME	"No_unit"
*HW_I_CBO_NAME_INTERNAL	"No_unit"
*HW_I_MONOCHRO_NAME_INTERNAL	"Manual"
*HW_I_OPT_ID-1	"CBO0020"
*HW_I_PRIMARY_NAME_INTERNAL	"No_unit"
*HW_I_SLIT_NAME_INTERNAL	"Manual"
*HW_R_ATTENUATER_AUTOMODE	"0"
*HW_R_ATTENUATER_ID	"ATN0020"
*HW_R_ATTENUATER_NAME	"No_unit"
*HW_R_ATTENUATOR_NAME_INTERNAL	"No_unit"
*HW_R_OPT_ID-1	"RCR0023"
*HW_R_OPT_ID-4	"ATN0020"
*HW_R_ROD_ID	"RCR0023"
*HW_R_ROD_NAME	"No_unit"
*HW_R_ROD_NAME_INTERNAL	"No_unit"
*HW_R_RPS_NAME_INTERNAL	"Manual"
*HW_R_RS_NAME_INTERNAL	"Manual"
*HW_R_SS_NAME_INTERNAL	"Manual"
*HW_SAMPLE_HOLDER_NAME_INTERNAL	"None"
*HW_SAMPLE_NAME	"None"
*HW_SAMPLE_NAME_INTERNAL	"None"
*HW_SAMPLE_PLATE_NAME	"None"
*HW_SAMPLE_PLATE_NAME_INTERNAL	"None"
*HW_SAMPLE_SPACER_NAME	"None"
*HW_SAMPLE_SPACER_NAME_INTERNAL	"None"
*HW_USERINFO_CATALOG_NO	""
*HW_USERINFO_INSTRUMENT_ID	""
*HW_USERINFO_INSTRUMENT_NAME	""
*HW_USERINFO_INSTRUMENT_NO	""
*HW_USERINFO_MODEL	""
*HW_USERINFO_ORDER_NO	""
*HW_USERINFO_SERIAL_NO	""
*HW_USERINFO_VERIFY_INSTRUMENT_ID	"00-07-fe-03-07-9c"
*HW_VER_RCD_COUNTER_UNIT	"N/A"
*HW_VER_RCD_CPU	"10.1.3"
*HW_VER_RCD_FPGA	"4.0.4"
*HW_VER_RCD_GONIO_UNIT	"0.0.0"
*HW_VER_RCD_INCIDENT_UNIT	"0.0.0"
*HW_VER_RCD_RECEIVING_UNIT	"0.0.0"
*HW_VER_RCD_TYPE	"RINCII"
*HW_VER_XGC_CPU	"10.1.3"
*HW_VER_XGC_CW	"5.5.6"
*HW_VER_XGC_HV	"5.5.6"
*HW_VER_XGC_RS1	"5.5.6"
*HW_VER_XGC_RS2	"N/A"
*HW_VER_XGC_RT	"N/A"
*HW_VER_XGC_TYPE	"RINCII"
*HW_XG_CURRENT_UNIT	"mA"
*HW_XG_FOCUS	"0.4mm x 12mm"
*HW_XG_FOCUS_TYPE	"LongFineToshiba"
*HW_XG_TARGET_ATOMIC_NUMBER	"29"
*HW_XG_TARGET_NAME	"Cu"
*HW_XG_TYPE	"Hermetic"
*HW_XG_VOLTAGE_UNIT	"kV"
*HW_XG_WAVE_LENGTH_ALPHA1	"1.540593"
*HW_XG_WAVE_LENGTH_ALPHA2	"1.544414"
*HW_XG_WAVE_LENGTH_BETA	"1.392246"
*HW_XG_WAVE_LENGTH_UNIT	"Angstrom"
*MEAS_COND_AXIS_NAME_INTERNAL-0	"TwoThetaTheta"
*MEAS_COND_AXIS_NAME_INTERNAL-1	"IncidentSollerSlit"
*MEAS_COND_AXIS_NAME_INTERNAL-10	"ReceivingSlitBox1"
*MEAS_COND_AXIS_NAME_INTERNAL-11	"ReceivingSlitBox1"
*MEAS_COND_AXIS_NAME_INTERNAL-12	"Filter"
*MEAS_COND_AXIS_NAME_INTERNAL-13	"ReceivingSollerSlit"
*MEAS_COND_AXIS_NAME_INTERNAL-14	"ReceivingSlitBox2"
*MEAS_COND_AXIS_NAME_INTERNAL-15	"ReceivingSlitBox2"
*MEAS_COND_AXIS_NAME_INTERNAL-16	"ReceivingSlitBox2"
*MEAS_COND_AXIS_NAME_INTERNAL-17	"PHA"
*MEAS_COND_AXIS_NAME_INTERNAL-18	"RS3"
*MEAS_COND_AXIS_NAME_INTERNAL-19	"Target_TargetTime"
*MEAS_COND_AXIS_NAME_INTERNAL-2	"IncidentSlitBox"
*MEAS_COND_AXIS_NAME_INTERNAL-20	"Target_XrayOnTime"
*MEAS_COND_AXIS_NAME_INTERNAL-21	"Target_IG"
*MEAS_COND_AXIS_NAME_INTERNAL-22	"Target_GP"
*MEAS_COND_AXIS_NAME_INTERNAL-23	"Target_FC"
*MEAS_COND_AXIS_NAME_INTERNAL-24	"HVPS_Bias"
*MEAS_COND_AXIS_NAME_INTERNAL-25	"HVPS_HVPSTime"
*MEAS_COND_AXIS_NAME_INTERNAL-26	"HVPS_Type1Time"
*MEAS_COND_AXIS_NAME_INTERNAL-27	"HVPS_Type2Time"
*MEAS_COND_AXIS_NAME_INTERNAL-28	"HVPS_Type3Time"
*MEAS_COND_AXIS_NAME_INTERNAL-29	"CW_IERTime"
*MEAS_COND_AXIS_NAME_INTERNAL-3	"IncidentSlitBox"
*MEAS_COND_AXIS_NAME_INTERNAL-30	"CW_WaterHose"
*MEAS_COND_AXIS_NAME_INTERNAL-31	"CW_CoolingWater"
*MEAS_COND_AXIS_NAME_INTERNAL-32	"CW_ECTime"
*MEAS_COND_AXIS_NAME_INTERNAL-33	"CW_Flow1"
*MEAS_COND_AXIS_NAME_INTERNAL-34	"CW_Temperature1"
*MEAS_COND_AXIS_NAME_INTERNAL-35	"CW_Pressure1"
*MEAS_COND_AXIS_NAME_INTERNAL-36	"CW_PressureIn"
*MEAS_COND_AXIS_NAME_INTERNAL-37	"CW_PressureOut"
*MEAS_COND_AXIS_NAME_INTERNAL-38	"CW_Flow2"
*MEAS_COND_AXIS_NAME_INTERNAL-39	"CW_Temperature2"
*MEAS_COND_AXIS_NAME_INTERNAL-4	"IncidentSlitBox"
*MEAS_COND_AXIS_NAME_INTERNAL-40	"CW_Pressure2"
*MEAS_COND_AXIS_NAME_INTERNAL-41	"RE_EnclosureTemp"
*MEAS_COND_AXIS_NAME_INTERNAL-42	"RE_EnclosureHummidity"
*MEAS_COND_AXIS_NAME_INTERNAL-43	"RE_CabinetTemp"
*MEAS_COND_AXIS_NAME_INTERNAL-44	"RE_RPTemp"
*MEAS_COND_AXIS_NAME_INTERNAL-45	"RE_ShutterAXrayOnTime"
*MEAS_COND_AXIS_NAME_INTERNAL-46	"RE_ShutterATimes"
*MEAS_COND_AXIS_NAME_INTERNAL-47	"RE_ShutterAOpenCloseTime"
*MEAS_COND_AXIS_NAME_INTERNAL-48	"RE_ShutterACloseOpenTime"
*MEAS_COND_AXIS_NAME_INTERNAL-49	"RE_ShutterBXrayOnTime"
*MEAS_COND_AXIS_NAME_INTERNAL-5	"IncidentAxdSlit"
*MEAS_COND_AXIS_NAME_INTERNAL-50	"RE_ShutterBTimes"
*MEAS_COND_AXIS_NAME_INTERNAL-51	"RE_ShutterBOpenCloseTime"
*MEAS_COND_AXIS_NAME_INTERNAL-52	"RE_ShutterBCloseOpenTime"
*MEAS_COND_AXIS_NAME_INTERNAL-53	"RE_XrayWarningRamp"
*MEAS_COND_AXIS_NAME_INTERNAL-54	"RE_ShutterAInstallation"
*MEAS_COND_AXIS_NAME_INTERNAL-55	"RE_ShutterARamp"
*MEAS_COND_AXIS_NAME_INTERNAL-56	"RE_ShutterBInstallation"
*MEAS_COND_AXIS_NAME_INTERNAL-57	"RE_ShutterBRamp"
*MEAS_COND_AXIS_NAME_INTERNAL-58	"RE_ExtShutterCLS"
*MEAS_COND_AXIS_NAME_INTERNAL-59	"RE_ExtXrayOFF"
*MEAS_COND_AXIS_NAME_INTERNAL-6	"IncidentAxdSlit"
*MEAS_COND_AXIS_NAME_INTERNAL-60	"RE_ExtSafetyCircuit"
*MEAS_COND_AXIS_NAME_INTERNAL-61	"Version_CPU"
*MEAS_COND_AXIS_NAME_INTERNAL-62	"Version_RS1"
*MEAS_COND_AXIS_NAME_INTERNAL-63	"Version_RS2"
*MEAS_COND_AXIS_NAME_INTERNAL-64	"Version_HV"
*MEAS_COND_AXIS_NAME_INTERNAL-65	"Version_CW"
*MEAS_COND_AXIS_NAME_INTERNAL-66	"Version_RT"
*MEAS_COND_AXIS_NAME_INTERNAL-67	"IncidentPrimary"
*MEAS_COND_AXIS_NAME_INTERNAL-68	"IncidentMonochromator"
*MEAS_COND_AXIS_NAME_INTERNAL-69	"ReceivingOptics"
*MEAS_COND_AXIS_NAME_INTERNAL-7	"IncidentAxdSlit"
*MEAS_COND_AXIS_NAME_INTERNAL-70	"CounterMonochromatorKind"
*MEAS_COND_AXIS_NAME_INTERNAL-8	"Filter"
*MEAS_COND_AXIS_NAME_INTERNAL-9	"ReceivingSlitBox1"
*MEAS_COND_AXIS_NAME-0	"TwoThetaTheta"
*MEAS_COND_AXIS_NAME-1	"IncidentSollerSlit"
*MEAS_COND_AXIS_NAME-10	"ReceivingSlitBox1-_Axis"
*MEAS_COND_AXIS_NAME-11	"SlitSS"
*MEAS_COND_AXIS_NAME-12	"Filter"
*MEAS_COND_AXIS_NAME-13	"ReceivingSollerSlit"
*MEAS_COND_AXIS_NAME-14	"ReceivingSlitBox2"
*MEAS_COND_AXIS_NAME-15	"ReceivingSlitBox2-_Axis"
*MEAS_COND_AXIS_NAME-16	"SlitRS"
*MEAS_COND_AXIS_NAME-17	"PHA"
*MEAS_COND_AXIS_NAME-18	"RS3"
*MEAS_COND_AXIS_NAME-19	"Target_TargetTime"
*MEAS_COND_AXIS_NAME-2	"IncidentSlitBox"
*MEAS_COND_AXIS_NAME-20	"Target_XrayOnTime"
*MEAS_COND_AXIS_NAME-21	"Target_IG"
*MEAS_COND_AXIS_NAME-22	"Target_GP"
*MEAS_COND_AXIS_NAME-23	"Target_FC"
*MEAS_COND_AXIS_NAME-24	"HVPS_Bias"
*MEAS_COND_AXIS_NAME-25	"HVPS_HVPSTime"
*MEAS_COND_AXIS_NAME-26	"HVPS_Type1Time"
*MEAS_COND_AXIS_NAME-27	"HVPS_Type2Time"
*MEAS_COND_AXIS_NAME-28	"HVPS_Type3Time"
*MEAS_COND_AXIS_NAME-29	"CW_IERTime"
*MEAS_COND_AXIS_NAME-3	"IncidentSlitBox-_Axis"
*MEAS_COND_AXIS_NAME-30	"CW_WaterHose"
*MEAS_COND_AXIS_NAME-31	"CW_CoolingWater"
*MEAS_COND_AXIS_NAME-32	"CW_ECTime"
*MEAS_COND_AXIS_NAME-33	"CW_Flow1"
*MEAS_COND_AXIS_NAME-34	"CW_Temperature1"
*MEAS_COND_AXIS_NAME-35	"CW_Pressure1"
*MEAS_COND_AXIS_NAME-36	"CW_PressureIn"
*MEAS_COND_AXIS_NAME-37	"CW_PressureOut"
*MEAS_COND_AXIS_NAME-38	"CW_Flow2"
*MEAS_COND_AXIS_NAME-39	"CW_Temperature2"
*MEAS_COND_AXIS_NAME-4	"SlitDS"
*MEAS_COND_AXIS_NAME-40	"CW_Pressure2"
*MEAS_COND_AXIS_NAME-41	"RE_EnclosureTemp"
*MEAS_COND_AXIS_NAME-42	"RE_EnclosureHummidity"
*MEAS_COND_AXIS_NAME-43	"RE_CabinetTemp"
*MEAS_COND_AXIS_NAME-44	"RE_RPTemp"
*MEAS_COND_AXIS_NAME-45	"RE_ShutterAXrayOnTime"
*MEAS_COND_AXIS_NAME-46	"RE_ShutterATimes"
*MEAS_COND_AXIS_NAME-47	"RE_ShutterAOpenCloseTime"
*MEAS_COND_AXIS_NAME-48	"RE_ShutterACloseOpenTime"
*MEAS_COND_AXIS_NAME-49	"RE_ShutterBXrayOnTime"
*MEAS_COND_AXIS_NAME-5	"IncidentAxdSlit"
*MEAS_COND_AXIS_NAME-50	"RE_ShutterBTimes"
*MEAS_COND_AXIS_NAME-51	"RE_ShutterBOpenCloseTime"
*MEAS_COND_AXIS_NAME-52	"RE_ShutterBCloseOpenTime"
*MEAS_COND_AXIS_NAME-53	"RE_XrayWarningRamp"
*MEAS_COND_AXIS_NAME-54	"RE_ShutterAInstallation"
*MEAS_COND_AXIS_NAME-55	"RE_ShutterARamp"
*MEAS_COND_AXIS_NAME-56	"RE_ShutterBInstallation"
*MEAS_COND_AXIS_NAME-57	"RE_ShutterBRamp"
*MEAS_COND_AXIS_NAME-58	"RE_ExtShutterCLS"
*MEAS_COND_AXIS_NAME-59	"RE_ExtXrayOFF"
*MEAS_COND_AXIS_NAME-6	"LLS"
*MEAS_COND_AXIS_NAME-60	"RE_ExtSafetyCircuit"
*MEAS_COND_AXIS_NAME-61	"Version_CPU"
*MEAS_COND_AXIS_NAME-62	"Version_RS1"
*MEAS_COND_AXIS_NAME-63	"Version_RS2"
*MEAS_COND_AXIS_NAME-64	"Version_HV"
*MEAS_COND_AXIS_NAME-65	"Version_CW"
*MEAS_COND_AXIS_NAME-66	"Version_RT"
*MEAS_COND_AXIS_NAME-67	"IncidentPrimary"
*MEAS_COND_AXIS_NAME-68	"IncidentMonochromator"
*MEAS_COND_AXIS_NAME-69	"ReceivingOptics"
*MEAS_COND_AXIS_NAME-7	"DHLSlit"
*MEAS_COND_AXIS_NAME-70	"CounterMonochromatorKind"
*MEAS_COND_AXIS_NAME-8	"Filter"
*MEAS_COND_AXIS_NAME-9	"ReceivingSlitBox1"
*MEAS_COND_AXIS_OFFSET-0	"0"
*MEAS_COND_AXIS_OFFSET-1	"0"
*MEAS_COND_AXIS_OFFSET-10	"0"
*MEAS_COND_AXIS_OFFSET-11	"0"
*MEAS_COND_AXIS_OFFSET-12	"0"
*MEAS_COND_AXIS_OFFSET-13	"0"
*MEAS_COND_AXIS_OFFSET-14	"0"
*MEAS_COND_AXIS_OFFSET-15	"0"
*MEAS_COND_AXIS_OFFSET-16	"0"
*MEAS_COND_AXIS_OFFSET-17	"0"
*MEAS_COND_AXIS_OFFSET-18	"0"
*MEAS_COND_AXIS_OFFSET-19	"0"
*MEAS_COND_AXIS_OFFSET-2	"0"
*MEAS_COND_AXIS_OFFSET-20	"0"
*MEAS_COND_AXIS_OFFSET-21	"0"
*MEAS_COND_AXIS_OFFSET-22	"0"
*MEAS_COND_AXIS_OFFSET-23	"0"
*MEAS_COND_AXIS_OFFSET-24	"0"
*MEAS_COND_AXIS_OFFSET-25	"0"
*MEAS_COND_AXIS_OFFSET-26	"0"
*MEAS_COND_AXIS_OFFSET-27	"0"
*MEAS_COND_AXIS_OFFSET-28	"0"
*MEAS_COND_AXIS_OFFSET-29	"0"
*MEAS_COND_AXIS_OFFSET-3	"0"
*MEAS_COND_AXIS_OFFSET-30	"0"
*MEAS_COND_AXIS_OFFSET-31	"0"
*MEAS_COND_AXIS_OFFSET-32	"0"
*MEAS_COND_AXIS_OFFSET-33	"0"
*MEAS_COND_AXIS_OFFSET-34	"0"
*MEAS_COND_AXIS_OFFSET-35	"0"
*MEAS_COND_AXIS_OFFSET-36	"0"
*MEAS_COND_AXIS_OFFSET-37	"0"
*MEAS_COND_AXIS_OFFSET-38	"0"
*MEAS_COND_AXIS_OFFSET-39	"0"
*MEAS_COND_AXIS_OFFSET-4	"0"
*MEAS_COND_AXIS_OFFSET-40	"0"
*MEAS_COND_AXIS_OFFSET-41	"0"
*MEAS_COND_AXIS_OFFSET-42	"0"
*MEAS_COND_AXIS_OFFSET-43	"0"
*MEAS_COND_AXIS_OFFSET-44	"0"
*MEAS_COND_AXIS_OFFSET-45	"0"
*MEAS_COND_AXIS_OFFSET-46	"0"
*MEAS_COND_AXIS_OFFSET-47	"0"
*MEAS_COND_AXIS_OFFSET-48	"0"
*MEAS_COND_AXIS_OFFSET-49	"0"
*MEAS_COND_AXIS_OFFSET-5	"0"
*MEAS_COND_AXIS_OFFSET-50	"0"
*MEAS_COND_AXIS_OFFSET-51	"0"
*MEAS_COND_AXIS_OFFSET-52	"0"
*MEAS_COND_AXIS_OFFSET-53	"0"
*MEAS_COND_AXIS_OFFSET-54	"0"
*MEAS_COND_AXIS_OFFSET-55	"0"
*MEAS_COND_AXIS_OFFSET-56	"0"
*MEAS_COND_AXIS_OFFSET-57	"0"
*MEAS_COND_AXIS_OFFSET-58	"0"
*MEAS_COND_AXIS_OFFSET-59	"0"
*MEAS_COND_AXIS_OFFSET-6	"0"
*MEAS_COND_AXIS_OFFSET-60	"0"
*MEAS_COND_AXIS_OFFSET-61	"0"
*MEAS_COND_AXIS_OFFSET-62	"0"
*MEAS_COND_AXIS_OFFSET-63	"0"
*MEAS_COND_AXIS_OFFSET-64	"0"
*MEAS_COND_AXIS_OFFSET-65	"0"
*MEAS_COND_AXIS_OFFSET-66	"0"
*MEAS_COND_AXIS_OFFSET-67	"0"
*MEAS_COND_AXIS_OFFSET-68	"0"
*MEAS_COND_AXIS_OFFSET-69	"0"
*MEAS_COND_AXIS_OFFSET-7	"0"
*MEAS_COND_AXIS_OFFSET-70	"0"
*MEAS_COND_AXIS_OFFSET-8	"0"
*MEAS_COND_AXIS_OFFSET-9	"0"
*MEAS_COND_AXIS_POSITION-0	"12.0000"
*MEAS_COND_AXIS_POSITION-1	"Soller_slit_2.5deg"
*MEAS_COND_AXIS_POSITION-10	"8.0mm"
*MEAS_COND_AXIS_POSITION-11	"8.0mm"
*MEAS_COND_AXIS_POSITION-12	"K_beta_x1.5"
*MEAS_COND_AXIS_POSITION-13	"Soller_slit_2.5deg"
*MEAS_COND_AXIS_POSITION-14	"Open"
*MEAS_COND_AXIS_POSITION-15	"Open"
*MEAS_COND_AXIS_POSITION-16	"Open"
*MEAS_COND_AXIS_POSITION-17	"36"
*MEAS_COND_AXIS_POSITION-18	"Open"
*MEAS_COND_AXIS_POSITION-19	""
*MEAS_COND_AXIS_POSITION-2	"1.25deg"
*MEAS_COND_AXIS_POSITION-20	"18.466667"
*MEAS_COND_AXIS_POSITION-21	"0.000000"
*MEAS_COND_AXIS_POSITION-22	""
*MEAS_COND_AXIS_POSITION-23	"0.000000"
*MEAS_COND_AXIS_POSITION-24	"0.000000"
*MEAS_COND_AXIS_POSITION-25	""
*MEAS_COND_AXIS_POSITION-26	""
*MEAS_COND_AXIS_POSITION-27	""
*MEAS_COND_AXIS_POSITION-28	""
*MEAS_COND_AXIS_POSITION-29	"0.000000"
*MEAS_COND_AXIS_POSITION-3	"1.25deg"
*MEAS_COND_AXIS_POSITION-30	""
*MEAS_COND_AXIS_POSITION-31	""
*MEAS_COND_AXIS_POSITION-32	""
*MEAS_COND_AXIS_POSITION-33	"4.200000"
*MEAS_COND_AXIS_POSITION-34	"0.000000"
*MEAS_COND_AXIS_POSITION-35	"0.000000"
*MEAS_COND_AXIS_POSITION-36	""
*MEAS_COND_AXIS_POSITION-37	""
*MEAS_COND_AXIS_POSITION-38	"0.000000"
*MEAS_COND_AXIS_POSITION-39	"0.000000"
*MEAS_COND_AXIS_POSITION-4	"1.25deg"
*MEAS_COND_AXIS_POSITION-40	"0.000000"
*MEAS_COND_AXIS_POSITION-41	"0.000000"
*MEAS_COND_AXIS_POSITION-42	""
*MEAS_COND_AXIS_POSITION-43	"37.000000"
*MEAS_COND_AXIS_POSITION-44	""
*MEAS_COND_AXIS_POSITION-45	""
*MEAS_COND_AXIS_POSITION-46	""
*MEAS_COND_AXIS_POSITION-47	""
*MEAS_COND_AXIS_POSITION-48	""
*MEAS_COND_AXIS_POSITION-49	""
*MEAS_COND_AXIS_POSITION-5	"10mm"
*MEAS_COND_AXIS_POSITION-50	"72.000000"
*MEAS_COND_AXIS_POSITION-51	"0.000000"
*MEAS_COND_AXIS_POSITION-52	"0.000000"
*MEAS_COND_AXIS_POSITION-53	""
*MEAS_COND_AXIS_POSITION-54	"OFF"
*MEAS_COND_AXIS_POSITION-55	""
*MEAS_COND_AXIS_POSITION-56	"ON"
*MEAS_COND_AXIS_POSITION-57	""
*MEAS_COND_AXIS_POSITION-58	""
*MEAS_COND_AXIS_POSITION-59	""
*MEAS_COND_AXIS_POSITION-6	"10mm"
*MEAS_COND_AXIS_POSITION-60	"CLOSE"
*MEAS_COND_AXIS_POSITION-61	"10.1.3"
*MEAS_COND_AXIS_POSITION-62	"5.5.6"
*MEAS_COND_AXIS_POSITION-63	"N/A"
*MEAS_COND_AXIS_POSITION-64	"5.5.6"
*MEAS_COND_AXIS_POSITION-65	"5.5.6"
*MEAS_COND_AXIS_POSITION-66	"N/A"
*MEAS_COND_AXIS_POSITION-67	"No_unit"
*MEAS_COND_AXIS_POSITION-68	"Manual"
*MEAS_COND_AXIS_POSITION-69	"No_unit"
*MEAS_COND_AXIS_POSITION-7	"10mm"
*MEAS_COND_AXIS_POSITION-70	"None"
*MEAS_COND_AXIS_POSITION-8	"None"
*MEAS_COND_AXIS_POSITION-9	"8.0mm"
*MEAS_COND_AXIS_RESOLUTION-0	"0.0025"
*MEAS_COND_AXIS_RESOLUTION-1	""
*MEAS_COND_AXIS_RESOLUTION-10	""
*MEAS_COND_AXIS_RESOLUTION-11	""
*MEAS_COND_AXIS_RESOLUTION-12	""
*MEAS_COND_AXIS_RESOLUTION-13	""
*MEAS_COND_AXIS_RESOLUTION-14	""
*MEAS_COND_AXIS_RESOLUTION-15	""
*MEAS_COND_AXIS_RESOLUTION-16	""
*MEAS_COND_AXIS_RESOLUTION-17	"1"
*MEAS_COND_AXIS_RESOLUTION-18	"0.1"
*MEAS_COND_AXIS_RESOLUTION-19	"0.01"
*MEAS_COND_AXIS_RESOLUTION-2	""
*MEAS_COND_AXIS_RESOLUTION-20	"0.010000"
*MEAS_COND_AXIS_RESOLUTION-21	"1"
*MEAS_COND_AXIS_RESOLUTION-22	"1"
*MEAS_COND_AXIS_RESOLUTION-23	"0.01"
*MEAS_COND_AXIS_RESOLUTION-24	"1"
*MEAS_COND_AXIS_RESOLUTION-25	"0.01"
*MEAS_COND_AXIS_RESOLUTION-26	"0.01"
*MEAS_COND_AXIS_RESOLUTION-27	"0.01"
*MEAS_COND_AXIS_RESOLUTION-28	"0.01"
*MEAS_COND_AXIS_RESOLUTION-29	"0.010000"
*MEAS_COND_AXIS_RESOLUTION-3	""
*MEAS_COND_AXIS_RESOLUTION-30	"0.01"
*MEAS_COND_AXIS_RESOLUTION-31	"0.01"
*MEAS_COND_AXIS_RESOLUTION-32	"1"
*MEAS_COND_AXIS_RESOLUTION-33	"0.100000"
*MEAS_COND_AXIS_RESOLUTION-34	"1.000000"
*MEAS_COND_AXIS_RESOLUTION-35	"0.010000"
*MEAS_COND_AXIS_RESOLUTION-36	"0.01"
*MEAS_COND_AXIS_RESOLUTION-37	"0.01"
*MEAS_COND_AXIS_RESOLUTION-38	"0.1"
*MEAS_COND_AXIS_RESOLUTION-39	"1"
*MEAS_COND_AXIS_RESOLUTION-4	""
*MEAS_COND_AXIS_RESOLUTION-40	"0.01"
*MEAS_COND_AXIS_RESOLUTION-41	"1.000000"
*MEAS_COND_AXIS_RESOLUTION-42	"1"
*MEAS_COND_AXIS_RESOLUTION-43	"1.000000"
*MEAS_COND_AXIS_RESOLUTION-44	"1"
*MEAS_COND_AXIS_RESOLUTION-45	"0.01"
*MEAS_COND_AXIS_RESOLUTION-46	"1"
*MEAS_COND_AXIS_RESOLUTION-47	"1"
*MEAS_COND_AXIS_RESOLUTION-48	"1"
*MEAS_COND_AXIS_RESOLUTION-49	"0.01"
*MEAS_COND_AXIS_RESOLUTION-5	""
*MEAS_COND_AXIS_RESOLUTION-50	"1.000000"
*MEAS_COND_AXIS_RESOLUTION-51	"1.000000"
*MEAS_COND_AXIS_RESOLUTION-52	"1.000000"
*MEAS_COND_AXIS_RESOLUTION-53	"-"
*MEAS_COND_AXIS_RESOLUTION-54	"-"
*MEAS_COND_AXIS_RESOLUTION-55	"-"
*MEAS_COND_AXIS_RESOLUTION-56	"1.000000"
*MEAS_COND_AXIS_RESOLUTION-57	"-"
*MEAS_COND_AXIS_RESOLUTION-58	"-"
*MEAS_COND_AXIS_RESOLUTION-59	"-"
*MEAS_COND_AXIS_RESOLUTION-6	""
*MEAS_COND_AXIS_RESOLUTION-60	"1.000000"
*MEAS_COND_AXIS_RESOLUTION-61	"1.000000"
*MEAS_COND_AXIS_RESOLUTION-62	"1.000000"
*MEAS_COND_AXIS_RESOLUTION-63	"1.000000"
*MEAS_COND_AXIS_RESOLUTION-64	"1.000000"
*MEAS_COND_AXIS_RESOLUTION-65	"1.000000"
*MEAS_COND_AXIS_RESOLUTION-66	"1.000000"
*MEAS_COND_AXIS_RESOLUTION-7	""
*MEAS_COND_AXIS_RESOLUTION-8	""
*MEAS_COND_AXIS_RESOLUTION-9	""
*MEAS_COND_AXIS_STATE-0	"Scan"
*MEAS_COND_AXIS_STATE-1	"Fixed"
*MEAS_COND_AXIS_STATE-10	"Fixed"
*MEAS_COND_AXIS_STATE-11	"Fixed"
*MEAS_COND_AXIS_STATE-12	"Fixed"
*MEAS_COND_AXIS_STATE-13	"Fixed"
*MEAS_COND_AXIS_STATE-14	"Fixed"
*MEAS_COND_AXIS_STATE-15	"Fixed"
*MEAS_COND_AXIS_STATE-16	"Fixed"
*MEAS_COND_AXIS_STATE-17	"Fixed"
*MEAS_COND_AXIS_STATE-18	"Fixed"
*MEAS_COND_AXIS_STATE-19	"Fixed"
*MEAS_COND_AXIS_STATE-2	"Fixed"
*MEAS_COND_AXIS_STATE-20	"Fixed"
*MEAS_COND_AXIS_STATE-21	"Fixed"
*MEAS_COND_AXIS_STATE-22	"Fixed"
*MEAS_COND_AXIS_STATE-23	"Fixed"
*MEAS_COND_AXIS_STATE-24	"Fixed"
*MEAS_COND_AXIS_STATE-25	"Fixed"
*MEAS_COND_AXIS_STATE-26	"Fixed"
*MEAS_COND_AXIS_STATE-27	"Fixed"
*MEAS_COND_AXIS_STATE-28	"Fixed"
*MEAS_COND_AXIS_STATE-29	"Fixed"
*MEAS_COND_AXIS_STATE-3	"Fixed"
*MEAS_COND_AXIS_STATE-30	"Fixed"
*MEAS_COND_AXIS_STATE-31	"Fixed"
*MEAS_COND_AXIS_STATE-32	"Fixed"
*MEAS_COND_AXIS_STATE-33	"Fixed"
*MEAS_COND_AXIS_STATE-34	"Fixed"
*MEAS_COND_AXIS_STATE-35	"Fixed"
*MEAS_COND_AXIS_STATE-36	"Fixed"
*MEAS_COND_AXIS_STATE-37	"Fixed"
*MEAS_COND_AXIS_STATE-38	"Fixed"
*MEAS_COND_AXIS_STATE-39	"Fixed"
*MEAS_COND_AXIS_STATE-4	"Fixed"
*MEAS_COND_AXIS_STATE-40	"Fixed"
*MEAS_COND_AXIS_STATE-41	"Fixed"
*MEAS_COND_AXIS_STATE-42	"Fixed"
*MEAS_COND_AXIS_STATE-43	"Fixed"
*MEAS_COND_AXIS_STATE-44	"Fixed"
*MEAS_COND_AXIS_STATE-45	"Fixed"
*MEAS_COND_AXIS_STATE-46	"Fixed"
*MEAS_COND_AXIS_STATE-47	"Fixed"
*MEAS_COND_AXIS_STATE-48	"Fixed"
*MEAS_COND_AXIS_STATE-49	"Fixed"
*MEAS_COND_AXIS_STATE-5	"Fixed"
*MEAS_COND_AXIS_STATE-50	"Fixed"
*MEAS_COND_AXIS_STATE-51	"Fixed"
*MEAS_COND_AXIS_STATE-52	"Fixed"
*MEAS_COND_AXIS_STATE-53	"Fixed"
*MEAS_COND_AXIS_STATE-54	"Fixed"
*MEAS_COND_AXIS_STATE-55	"Fixed"
*MEAS_COND_AXIS_STATE-56	"Fixed"
*MEAS_COND_AXIS_STATE-57	"Fixed"
*MEAS_COND_AXIS_STATE-58	"Fixed"
*MEAS_COND_AXIS_STATE-59	"Fixed"
*MEAS_COND_AXIS_STATE-6	"Fixed"
*MEAS_COND_AXIS_STATE-60	"Fixed"
*MEAS_COND_AXIS_STATE-61	"Fixed"
*MEAS_COND_AXIS_STATE-62	"Fixed"
*MEAS_COND_AXIS_STATE-63	"Fixed"
*MEAS_COND_AXIS_STATE-64	"Fixed"
*MEAS_COND_AXIS_STATE-65	"Fixed"
*MEAS_COND_AXIS_STATE-66	"Fixed"
*MEAS_COND_AXIS_STATE-7	"Fixed"
*MEAS_COND_AXIS_STATE-8	"Fixed"
*MEAS_COND_AXIS_STATE-9	"Fixed"
*MEAS_COND_AXIS_UNIT-0	"deg"
*MEAS_COND_AXIS_UNIT-1	""
*MEAS_COND_AXIS_UNIT-10	""
*MEAS_COND_AXIS_UNIT-11	""
*MEAS_COND_AXIS_UNIT-12	""
*MEAS_COND_AXIS_UNIT-13	""
*MEAS_COND_AXIS_UNIT-14	""
*MEAS_COND_AXIS_UNIT-15	""
*MEAS_COND_AXIS_UNIT-16	""
*MEAS_COND_AXIS_UNIT-17	"div"
*MEAS_COND_AXIS_UNIT-18	""
*MEAS_COND_AXIS_UNIT-19	"H"
*MEAS_COND_AXIS_UNIT-2	""
*MEAS_COND_AXIS_UNIT-20	"H"
*MEAS_COND_AXIS_UNIT-21	"mV"
*MEAS_COND_AXIS_UNIT-22	"V"
*MEAS_COND_AXIS_UNIT-23	"V"
*MEAS_COND_AXIS_UNIT-24	"V"
*MEAS_COND_AXIS_UNIT-25	"H"
*MEAS_COND_AXIS_UNIT-26	"H"
*MEAS_COND_AXIS_UNIT-27	"H"
*MEAS_COND_AXIS_UNIT-28	"H"
*MEAS_COND_AXIS_UNIT-29	"H"
*MEAS_COND_AXIS_UNIT-3	""
*MEAS_COND_AXIS_UNIT-30	"H"
*MEAS_COND_AXIS_UNIT-31	"H"
*MEAS_COND_AXIS_UNIT-32	"uS/m"
*MEAS_COND_AXIS_UNIT-33	"L/min"
*MEAS_COND_AXIS_UNIT-34	"degree"
*MEAS_COND_AXIS_UNIT-35	"MPa"
*MEAS_COND_AXIS_UNIT-36	"MPa"
*MEAS_COND_AXIS_UNIT-37	"MPa"
*MEAS_COND_AXIS_UNIT-38	"L/min"
*MEAS_COND_AXIS_UNIT-39	"C"
*MEAS_COND_AXIS_UNIT-4	""
*MEAS_COND_AXIS_UNIT-40	"MPa"
*MEAS_COND_AXIS_UNIT-41	"degree"
*MEAS_COND_AXIS_UNIT-42	"percent"
*MEAS_COND_AXIS_UNIT-43	"degree"
*MEAS_COND_AXIS_UNIT-44	"C"
*MEAS_COND_AXIS_UNIT-45	"H"
*MEAS_COND_AXIS_UNIT-46	"time"
*MEAS_COND_AXIS_UNIT-47	"msec"
*MEAS_COND_AXIS_UNIT-48	"msec"
*MEAS_COND_AXIS_UNIT-49	"H"
*MEAS_COND_AXIS_UNIT-5	""
*MEAS_COND_AXIS_UNIT-50	"times"
*MEAS_COND_AXIS_UNIT-51	"msec"
*MEAS_COND_AXIS_UNIT-52	"msec"
*MEAS_COND_AXIS_UNIT-53	"-"
*MEAS_COND_AXIS_UNIT-54	"-"
*MEAS_COND_AXIS_UNIT-55	"-"
*MEAS_COND_AXIS_UNIT-56	""
*MEAS_COND_AXIS_UNIT-57	"-"
*MEAS_COND_AXIS_UNIT-58	"-"
*MEAS_COND_AXIS_UNIT-59	"-"
*MEAS_COND_AXIS_UNIT-6	""
*MEAS_COND_AXIS_UNIT-60	""
*MEAS_COND_AXIS_UNIT-61	""
*MEAS_COND_AXIS_UNIT-62	""
*MEAS_COND_AXIS_UNIT-63	""
*MEAS_COND_AXIS_UNIT-64	""
*MEAS_COND_AXIS_UNIT-65	""
*MEAS_COND_AXIS_UNIT-66	""
*MEAS_COND_AXIS_UNIT-67	""
*MEAS_COND_AXIS_UNIT-68	""
*MEAS_COND_AXIS_UNIT-69	""
*MEAS_COND_AXIS_UNIT-7	""
*MEAS_COND_AXIS_UNIT-70	""
*MEAS_COND_AXIS_UNIT-8	""
*MEAS_COND_AXIS_UNIT-9	""
*MEAS_COND_COUNTER_ADJUSTMENTMETHOD	""
*MEAS_COND_COUNTER_CENTER_X	"0.5"
*MEAS_COND_COUNTER_CENTER_Y	"63.28"
*MEAS_COND_COUNTER_COUNTMODE	"Differential"
*MEAS_COND_COUNTER_DEADTIMECORRECTION	"Enabled"
*MEAS_COND_COUNTER_DISTANCE	"150"
*MEAS_COND_COUNTER_ENERGYMODE	"Standard"
*MEAS_COND_COUNTER_PHA_UNIT	"div"
*MEAS_COND_COUNTER_PHABASE	"36"
*MEAS_COND_COUNTER_PHAWINDOW	"26"
*MEAS_COND_COUNTER_PITCH_X	"20"
*MEAS_COND_COUNTER_PITCH_Y	"0.1"
*MEAS_COND_COUNTER_PITCHUNIT	"mm"
*MEAS_COND_COUNTER_VALIDWIDTH_X	"1"
*MEAS_COND_COUNTER_VALIDWIDTH_Y	"200"
*MEAS_COND_XG_CURRENT	"15"
*MEAS_COND_XG_VOLTAGE	"40"
*MEAS_COND_XG_WAVE_TYPE	"Ka"
*MEAS_DATA_COUNT	"9001"
*MEAS_SCAN_AXIS_X	"TwoThetaTheta"
*MEAS_SCAN_AXIS_X_INTERNAL	"TwoThetaTheta"
*MEAS_SCAN_END_TIME "04/19/2024 14:26:49"
*MEAS_SCAN_MODE	"CONTINUOUS"
*MEAS_SCAN_MODE_INTERNAL	"TDI_1D"
*MEAS_SCAN_RESOLUTION_X	"0.0025"
*MEAS_SCAN_SPEED	"10.0000"
*MEAS_SCAN_SPEED_UNIT	"deg/min"
*MEAS_SCAN_START	"10.0000"
*MEAS_SCAN_START_TIME "04/19/2024 14:17:03"
*MEAS_SCAN_STEP	"0.0100"
*MEAS_SCAN_STOP	"100.0000"
*MEAS_SCAN_UNEQUALY_SPACED	"False"
*MEAS_SCAN_UNIT_X	"deg"
*MEAS_SCAN_UNIT_Y	"cps"
#Intensity_unit=cps
#Attenuator_coefficient=1.0000
10.0000	20870.0100
10.0100	20873.3475
10.0200	20676.4750
10.0300	21053.4425
10.0400	20933.3325
10.0500	20926.7725
10.0600	20894.4375
10.0700	21143.4925
10.0800	21026.6075
10.0900	20553.2725
10.1000	21082.1575
10.1100	21301.6625
10.1200	20511.0050
10.1300	20288.8800
10.1400	20240.2850
10.1500	20814.8450
10.1600	21140.2025
10.1700	21366.6675
10.1800	21329.3200
10.1900	20875.2375
10.2000	20065.1200
10.2100	20837.4700
10.2200	20606.6150
10.2300	21189.5225
10.2400	21398.4600
10.2500	21129.0475
10.2600	20216.9100
10.2700	19922.2725
10.2800	20376.3125
10.2900	20964.0325
10.3000	20805.0975
10.3100	21216.1875
10.3200	21373.0775
10.3300	21285.6275
10.3400	21535.6025
10.3500	22081.8875
10.3600	22033.5725
10.3700	21630.3375
10.3800	21018.1925
10.3900	20572.3775
10.4000	21328.8100
10.4100	21178.7375
10.4200	22061.3225
10.4300	22308.1650
10.4400	21659.7350
10.4500	21572.2950
10.4600	21425.2825
10.4700	21177.3325
10.4800	21438.4550
10.4900	20913.0325
10.5000	20667.1725
10.5100	20550.3425
10.5200	21307.3325
10.5300	21211.9425
10.5400	21319.6325
10.5500	20986.3725
10.5600	21300.3200
10.5700	22278.1325
10.5800	22185.6150
10.5900	21820.5275
10.6000	21858.9825
10.6100	21757.7500
10.6200	21681.6825
10.6300	22027.5875
10.6400	21543.7300
10.6500	21495.3550
10.6600	21871.0900
10.6700	22183.9275
10.6800	22713.5700
10.6900	21427.6525
10.7000	21581.2350
10.7100	21799.2650
10.7200	22157.8375
10.7300	21352.2425
10.7400	20791.5075
10.7500	21541.7350
10.7600	21407.5075
10.7700	21095.8450
10.7800	21490.2950
10.7900	21592.5625
10.8000	21699.4625
10.8100	21449.5625
10.8200	21262.0100
10.8300	21885.5875
10.8400	21881.9425
10.8500	21432.2875
10.8600	21839.0675
10.8700	21268.3625
10.8800	21992.3475
10.8900	21933.3100
10.9000	22615.4500
10.9100	22115.5925
10.9200	22100.0000
10.9300	22110.5950
10.9400	22198.2450
10.9500	21228.3075
10.9600	21956.1125
10.9700	22776.2550
10.9800	22422.8200
10.9900	22502.4050
11.0000	22258.0325
11.0100	21914.9175
11.0200	22684.6375
11.0300	22943.8600
11.0400	22598.1050
11.0500	22821.5975
11.0600	22647.9025
11.0700	22875.6175
11.0800	22766.2775
11.0900	23001.0075
11.1000	22477.0500
11.1100	22671.5525
11.1200	23033.3325
11.1300	23007.4775
11.1400	22567.5825
11.1500	22581.5150
11.1600	22530.1350
11.1700	22173.4775
11.1800	21989.3300
11.1900	21794.7050
11.2000	21721.0125
11.2100	22138.2200
11.2200	22827.3000
11.2300	22721.7950
11.2400	22804.7950
11.2500	22605.2025
11.2600	23021.6725
11.2700	23128.2500
11.2800	23353.2825
11.2900	23416.6675
11.3000	23391.6600
11.3100	22919.1950
11.3200	23318.2375
11.3300	23669.9725
11.3400	23392.9875
11.3500	23201.3525
11.3600	22192.3475
11.3700	22050.0175
11.3800	22438.3225
11.3900	23230.6425
11.4000	22833.6300
11.4100	23189.7725
11.4200	22971.7325
11.4300	23060.3975
11.4400	22530.1250
11.4500	22118.4750
11.4600	22923.6250
11.4700	23074.3775
11.4800	22861.8925
11.4900	22743.2500
11.5000	22581.3300
11.5100	22552.5050
11.5200	23029.0950
11.5300	23324.2750
11.5400	23100.6400
11.5500	23122.3650
11.5600	23284.8250
11.5700	23740.7125
11.5800	23488.3700
11.5900	23163.9675
11.6000	22687.6850
11.6100	23730.1500
11.6200	24513.2000
11.6300	23492.4975
11.6400	23296.4450
11.6500	23661.0350
11.6600	23502.2250
11.6700	23561.7250
11.6800	23411.7875
11.6900	23292.3450
11.7000	24035.5175
11.7100	23084.8950
11.7200	23122.5425
11.7300	22794.9900
11.7400	23155.6725
11.7500	22812.3175
11.7600	23227.8375
11.7700	23590.4275
11.7800	23258.1800
11.7900	22987.1025
11.8000	23677.5900
11.8100	22889.6375
11.8200	23129.0775
11.8300	23591.1825
11.8400	23868.3175
11.8500	23301.2650
11.8600	23370.7425
11.8700	24169.0625
11.8800	23596.3950
11.8900	23450.7875
11.9000	23471.7400
11.9100	22973.0925
11.9200	22546.7325
11.9300	23145.0175
11.9400	23657.3600
11.9500	23238.9475
11.9600	23501.3750
11.9700	23564.9825
11.9800	23483.9925
11.9900	23516.9900
12.0000	23530.4975
12.0100	23379.3300
12.0200	23168.4725
12.0300	23279.0025
12.0400	23966.9525
12.0500	23976.0700
12.0600	23550.8175
12.0700	23599.4700
12.0800	23575.1775
12.0900	24119.1750
12.1000	24279.1925
12.1100	23995.9825
12.1200	23715.2925
12.1300	23620.4400
12.1400	23896.9925
12.1500	23661.6850
12.1600	23265.0625
12.1700	23146.4725
12.1800	24260.3425
12.1900	23703.0400
12.2000	23987.7950
12.2100	24411.2425
12.2200	23872.7950
12.2300	24517.2675
12.2400	24574.2000
12.2500	23518.9700
12.2600	23801.2825
12.2700	23967.5125
12.2800	24083.1050
12.2900	24048.5075
12.3000	23817.5600
12.3100	23967.1275
12.3200	24046.4400
12.3300	23354.5750
12.3400	24330.4525
12.3500	23653.2125
12.3600	24500.6125
12.3700	24682.2175
12.3800	24299.4225
12.3900	24068.9050
12.4000	25165.4400
12.4100	24399.7300
12.4200	24166.5350
12.4300	23983.4775
12.4400	24483.2575
12.4500	24766.5000
12.4600	24716.7175
12.4700	24267.3250
12.4800	23301.8400
12.4900	24081.5000
12.5000	24781.3875
12.5100	24667.0425
12.5200	24899.1475
12.5300	24186.2700
12.5400	24000.8325
12.5500	25061.3575
12.5600	25381.6175
12.5700	25068.5225
12.5800	25331.6550
12.5900	24985.6925
12.6000	24834.4100
12.6100	24552.1600
12.6200	25062.5025
12.6300	25331.0650
12.6400	24903.8750
12.6500	24305.6325
12.6600	24762.0800
12.6700	25706.9100
12.6800	25766.1300
12.6900	25041.5150
12.7000	24753.2850
12.7100	24964.0575
12.7200	25147.7100
12.7300	24886.7800
12.7400	24768.2275
12.7500	25259.7600
12.7600	24625.9350
12.7700	24731.6175
12.7800	24618.4350
12.7900	25469.8200
12.8000	25073.3475
12.8100	23984.7975
12.8200	25310.2000
12.8300	25497.1050
12.8400	25761.9150
12.8500	25046.7275
12.8600	24673.5275
12.8700	24944.5725
12.8800	25391.1800
12.8900	25204.0100
12.9000	25526.5025
12.9100	25239.6150
12.9200	25200.7125
12.9300	25200.0000
12.9400	25802.9250
12.9500	25849.2425
12.9600	25703.4775
12.9700	26139.3675
12.9800	24279.4800
12.9900	24737.3300
13.0000	25188.7625
13.0100	25021.3275
13.0200	24724.4275
13.0300	25446.9275
13.0400	25012.4925
13.0500	25162.1300
13.0600	24891.1725
13.0700	25320.6800
13.0800	25187.6200
13.0900	24972.9550
13.1000	25985.7225
13.1100	26065.1700
13.1200	25953.5425
13.1300	25626.9425
13.1400	25519.7950
13.1500	25097.0825
13.1600	25002.6825
13.1700	25580.4225
13.1800	25503.3075
13.1900	25242.2750
13.2000	25217.2325
13.2100	25763.8175
13.2200	25847.6750
13.2300	25592.7600
13.2400	25711.8925
13.2500	25347.2300
13.2600	25108.5650
13.2700	25854.2250
13.2800	25193.6250
13.2900	25006.3450
13.3000	25737.1325
13.3100	24997.8500
13.3200	24886.6200
13.3300	25427.3975
13.3400	25386.0225
13.3500	25223.4675
13.3600	25743.9775
13.3700	26149.9825
13.3800	26086.8475
13.3900	26131.2025
13.4000	25463.4875
13.4100	25289.8625
13.4200	25872.8725
13.4300	26584.8125
13.4400	25231.7800
13.4500	25596.2525
13.4600	25696.1825
13.4700	25382.0925
13.4800	26049.8375
13.4900	26623.2575
13.5000	25903.9950
13.5100	25803.2075
13.5200	26529.4300
13.5300	26107.0300
13.5400	26352.6450
13.5500	26540.8425
13.5600	26027.7225
13.5700	26221.4650
13.5800	26929.0275
13.5900	26808.6300
13.6000	26152.3675
13.6100	25800.9025
13.6200	25988.4800
13.6300	27072.5550
13.6400	26376.6050
13.6500	26679.9975
13.6600	25849.5100
13.6700	26996.4025
13.6800	26500.2275
13.6900	25963.4100
13.7000	25964.7725
13.7100	26516.5625
13.7200	26550.0000
13.7300	25937.8600
13.7400	26621.6575
13.7500	26243.2925
13.7600	25777.8300
13.7700	26313.9425
13.7800	26287.3700
13.7900	26345.9325
13.8000	26741.0475
13.8100	27438.9350
13.8200	27045.7950
13.8300	26079.5475
13.8400	26547.4375
13.8500	27035.8250
13.8600	26645.5900
13.8700	26569.9025
13.8800	25990.2100
13.8900	27055.6225
13.9000	26899.8675
13.9100	26696.6550
13.9200	26465.6500
13.9300	26605.4100
13.9400	26041.9350
13.9500	26683.1225
13.9600	27493.7025
13.9700	26976.1300
13.9800	26871.3250
13.9900	27083.5875
14.0000	27409.7325
14.0100	26953.4900
14.0200	26792.8975
14.0300	26999.8175
14.0400	26738.4700
14.0500	27180.0950
14.0600	27540.9025
14.0700	27782.7150
14.0800	27229.3075
14.0900	27429.9950
14.1000	27788.9875
14.1100	27724.2625
14.1200	27685.8800
14.1300	26914.0825
14.1400	27357.4475
14.1500	27999.4050
14.1600	27758.1300
14.1700	27042.4175
14.1800	27167.4825
14.1900	27934.8950
14.2000	27156.8425
14.2100	27083.3325
14.2200	27542.7650
14.2300	26863.9250
14.2400	26830.5975
14.2500	27215.6025
14.2600	27402.8300
14.2700	27233.3650
14.2800	27002.9250
14.2900	26632.3700
14.3000	27240.5600
14.3100	27909.7425
14.3200	26778.2850
14.3300	26925.5375
14.3400	26691.2625
14.3500	27609.8100
14.3600	28733.8775
14.3700	27906.3675
14.3800	26692.7350
14.3900	27053.9250
14.4000	27904.1400
14.4100	28134.9775
14.4200	27558.8925
14.4300	27636.3375
14.4400	29103.5150
14.4500	28009.1075
14.4600	27414.4600
14.4700	26882.9225
14.4800	27966.5125
14.4900	27600.0975
14.5000	27957.5150
14.5100	28045.2550
14.5200	27265.9825
14.5300	27334.0275
14.5400	27229.5100
14.5500	28691.9025
14.5600	28880.0900
14.5700	28161.5325
14.5800	28023.2150
14.5900	28287.0550
14.6000	27926.3125
14.6100	27703.2650
14.6200	27698.3300
14.6300	27370.2275
14.6400	27243.4425
14.6500	27128.5175
14.6600	27401.0150
14.6700	27029.4750
14.6800	28119.5125
14.6900	28578.7175
14.7000	28407.5950
14.7100	28413.1850
14.7200	28580.7625
14.7300	27869.4250
14.7400	27604.5125
14.7500	27613.1200
14.7600	28524.6925
14.7700	28395.2900
14.7800	27548.8375
14.7900	27970.1550
14.8000	28196.7225
14.8100	27058.7150
14.8200	27346.9550
14.8300	27993.1800
14.8400	28081.4875
14.8500	28631.4275
14.8600	28522.3350
14.8700	28455.6075
14.8800	28583.1025
14.8900	28023.5325
14.9000	27669.3100
14.9100	27780.9850
14.9200	27918.0550
14.9300	28715.0275
14.9400	28580.8125
14.9500	28800.4575
14.9600	29186.7275
14.9700	28497.5000
14.9800	28282.3325
14.9900	28487.1750
15.0000	27473.5050
15.0100	27259.9125
15.0200	28497.4800
15.0300	29092.0425
15.0400	28768.8400
15.0500	28965.7500
15.0600	28341.0275
15.0700	28103.6425
15.0800	27863.9200
15.0900	27701.7575
15.1000	27814.8350
15.1100	27818.7300
15.1200	29028.0650
15.1300	28966.6075
15.1400	28933.3325
15.1500	29122.7525
15.1600	28028.6750
15.1700	28390.6300
15.1800	29339.4500
15.1900	29641.1250
15.2000	28998.2825
15.2100	29684.1875
15.2200	28972.7125
15.2300	28850.0000
15.2400	28531.0550
15.2500	28323.9500
15.2600	28589.6250
15.2700	28662.2800
15.2800	28377.3700
15.2900	28405.6175
15.3000	28561.1525
15.3100	29623.0400
15.3200	30071.9775
15.3300	29482.0100
15.3400	28893.1950
15.3500	29191.2650
15.3600	28285.2350
15.3700	27759.1600
15.3800	27930.1300
15.3900	28369.1650
15.4000	28792.5000
15.4100	28505.3950
15.4200	28794.4075
15.4300	29036.4475
15.4400	29009.3300
15.4500	29042.9775
15.4600	29565.4300
15.4700	29435.3600
15.4800	29228.3875
15.4900	29200.0000
15.5000	29057.1550
15.5100	29547.2825
15.5200	29276.6300
15.5300	29573.1650
15.5400	30003.8775
15.5500	29098.1125
15.5600	29374.6250
15.5700	29080.1000
15.5800	29272.6025
15.5900	30055.6100
15.6000	29984.5025
15.6100	29410.6300
15.6200	29373.4100
15.6300	29851.1875
15.6400	30046.6875
15.6500	29344.4600
15.6600	29188.3625
15.6700	29027.7450
15.6800	28985.8650
15.6900	29265.8900
15.7000	30347.3925
15.7100	29799.5475
15.7200	29384.6075
15.7300	29474.2800
15.7400	30359.2700
15.7500	29503.0425
15.7600	29766.9000
15.7700	30117.1700
15.7800	29815.3350
15.7900	29792.1350
15.8000	29505.2300
15.8100	29421.9425
15.8200	29767.1675
15.8300	30071.5325
15.8400	29738.5750
15.8500	29400.7600
15.8600	29238.1050
15.8700	29104.8400
15.8800	29586.2575
15.8900	30060.3000
15.9000	29617.0575
15.9100	29056.4775
15.9200	29119.9700
15.9300	29748.9225
15.9400	31022.0325
15.9500	30304.0025
15.9600	29060.0100
15.9700	29864.3375
15.9800	29816.7075
15.9900	29974.8425
16.0000	30349.5450
16.0100	30721.6225
16.0200	29979.8450
16.0300	29982.8050
16.0400	29131.1300
16.0500	29143.5950
16.0600	29736.1250
16.0700	30941.1000
16.0800	30366.0900
16.0900	30324.1525
16.1000	30611.9400
16.1100	29977.7725
16.1200	30439.1900
16.1300	31323.5275
16.1400	30864.4625
16.1500	30705.8450
16.1600	30109.3550
16.1700	30450.0675
16.1800	29658.2575
16.1900	29329.5600
16.2000	30094.7325
16.2100	30307.7475
16.2200	29509.2250
16.2300	29278.6250
16.2400	30127.7900
16.2500	30371.3075
16.2600	30588.1100
16.2700	30442.3275
16.2800	30277.2850
16.2900	30154.6150
16.3000	30269.5150
16.3100	30272.7800
16.3200	30538.6900
16.3300	30165.0325
16.3400	30175.3400
16.3500	29494.0550
16.3600	29753.9225
16.3700	29022.9050
16.3800	29524.4075
16.3900	30820.8650
16.4000	30352.5200
16.4100	30318.5850
16.4200	30485.1675
16.4300	30989.4525
16.4400	30816.5050
16.4500	31114.2625
16.4600	30997.7575
16.4700	30208.9150
16.4800	30989.4050
16.4900	31391.6125
16.5000	30491.9150
16.5100	30804.2800
16.5200	31081.0825
16.5300	31358.2875
16.5400	31698.3800
16.5500	30479.6550
16.5600	31211.7000
16.5700	31908.5150
16.5800	31427.9100
16.5900	31671.1325
16.6000	31125.2025
16.6100	31006.7325
16.6200	30976.6250
16.6300	30593.1950
16.6400	31273.1275
16.6500	30840.5675
16.6600	31096.0275
16.6700	31372.9550
16.6800	30751.8825
16.6900	31061.6700
16.7000	31116.9400
16.7100	31405.2125
16.7200	31377.2400
16.7300	30740.3625
16.7400	31007.1550
16.7500	30799.0050
16.7600	30676.9850
16.7700	31473.0125
16.7800	31207.7650
16.7900	31347.3675
16.8000	31126.4175
16.8100	30667.6475
16.8200	30487.6100
16.8300	30690.5125
16.8400	30934.2250
16.8500	30246.9175
16.8600	30772.7950
16.8700	31846.5875
16.8800	31650.2225
16.8900	31336.5925
16.9000	31283.3325
16.9100	31492.9150
16.9200	31550.0000
16.9300	31798.5500
16.9400	32441.8800
16.9500	31385.0075
16.9600	30984.7200
16.9700	30744.8625
16.9800	30839.7975
16.9900	31639.0750
17.0000	31185.9075
17.0100	31871.8575
17.0200	32077.6550
17.0300	31507.8575
17.0400	30726.6250
17.0500	30926.3725
17.0600	31396.4850
17.0700	32148.0550
17.0800	32346.2850
17.0900	31806.3600
17.1000	32348.5000
17.1100	32252.6900
17.1200	32321.6825
17.1300	32482.8500
17.1400	31226.6025
17.1500	31172.3000
17.1600	31782.0000
17.1700	31315.3475
17.1800	30940.3425
17.1900	30960.4775
17.2000	31651.4675
17.2100	31439.1175
17.2200	32099.3850
17.2300	32307.6875
17.2400	32005.2750
17.2500	31916.6675
17.2600	31481.5775
17.2700	30864.0525
17.2800	32007.3875
17.2900	31595.4425
17.3000	30813.9925
17.3100	31670.2700
17.3200	32225.4825
17.3300	32300.0000
17.3400	31854.5425
17.3500	31780.2600
17.3600	32321.1075
17.3700	32026.0875
17.3800	32251.4175
17.3900	32163.7250
17.4000	31694.3950
17.4100	32136.6575
17.4200	32557.1625
17.4300	32317.1075
17.4400	31976.5000
17.4500	31710.5250
17.4600	32205.4075
17.4700	32055.3650
17.4800	32202.1100
17.4900	32295.9300
17.5000	32086.0050
17.5100	31626.7100
17.5200	31449.7175
17.5300	32136.7950
17.5400	32467.0925
17.5500	32211.4800
17.5600	32492.7350
17.5700	32215.8075
17.5800	32721.7575
17.5900	32558.0525
17.6000	32345.8300
17.6100	32828.8325
17.6200	32400.8100
17.6300	32624.1275
17.6400	32766.6675
17.6500	32243.4800
17.6600	32216.0425
17.6700	32552.7700
17.6800	32090.6250
17.6900	31688.8300
17.7000	32063.5350
17.7100	32563.9850
17.7200	32596.5650
17.7300	32616.2125
17.7400	32224.8625
17.7500	32305.9775
17.7600	32259.7300
17.7700	32414.2925
17.7800	32791.9025
17.7900	32653.3200
17.8000	32258.5375
17.8100	32630.3375
17.8200	33058.4600
17.8300	32350.5800
17.8400	31992.9275
17.8500	31954.3850
17.8600	32305.8975
17.8700	32322.9625
17.8800	32038.2375
17.8900	32194.9175
17.9000	31965.1675
17.9100	32045.6525
17.9200	32923.1525
17.9300	33546.3550
17.9400	32995.5650
17.9500	33018.2450
17.9600	33007.0100
17.9700	32771.8600
17.9800	32225.5050
17.9900	32402.5725
18.0000	33201.5200
18.0100	33328.6000
18.0200	32713.1700
18.0300	32233.3100
18.0400	32751.1200
18.0500	33249.6350
18.0600	33071.7975
18.0700	32845.7975
18.0800	32099.4725
18.0900	32388.5175
18.1000	32551.7575
18.1100	33232.3200
18.1200	33439.7875
18.1300	33224.1275
18.1400	32813.3025
18.1500	32659.3025
18.1600	32842.1150
18.1700	33084.6425
18.1800	33161.9900
18.1900	33058.8425
18.2000	32956.8075
18.2100	32682.1150
18.2200	32702.8725
18.2300	33227.7975
18.2400	33536.0275
18.2500	32748.4300
18.2600	32476.2575
18.2700	32750.0975
18.2800	32945.2050
18.2900	32186.5975
18.3000	32591.5100
18.3100	32016.5475
18.3200	32710.7775
18.3300	32327.1275
18.3400	32888.5300
18.3500	32906.6925
18.3600	32352.6425
18.3700	32053.3100
18.3800	32448.8325
18.3900	33542.1250
18.4000	33385.9575
18.4100	32930.9750
18.4200	33057.0725
18.4300	33208.8350
18.4400	32763.0200
18.4500	32919.1325
18.4600	32843.6075
18.4700	33160.5850
18.4800	33614.6625
18.4900	32667.4375
18.5000	33305.1575
18.5100	33626.3225
18.5200	33531.6075
18.5300	33866.9875
18.5400	33444.9150
18.5500	33934.5450
18.5600	33329.6125
18.5700	33154.5225
18.5800	33180.2050
18.5900	33184.8700
18.6000	33362.6050
18.6100	33386.9100
18.6200	33517.4225
18.6300	33606.5100
18.6400	33477.7225
18.6500	33671.2025
18.6600	34187.9625
18.6700	33350.1075
18.6800	32911.5425
18.6900	32882.0650
18.7000	33200.8875
18.7100	33442.1275
18.7200	33011.5500
18.7300	32719.5150
18.7400	32798.2225
18.7500	33297.7175
18.7600	33109.9900
18.7700	32887.4850
18.7800	32820.8550
18.7900	32857.2200
18.8000	32185.8050
18.8100	33032.1075
18.8200	34388.6825
18.8300	34207.6825
18.8400	33722.0225
18.8500	33479.9875
18.8600	33519.0950
18.8700	33612.1550
18.8800	33712.8725
18.8900	33602.4025
18.9000	34123.2575
18.9100	34139.2800
18.9200	33812.7875
18.9300	33569.5375
18.9400	33624.3950
18.9500	33129.6550
18.9600	32923.1200
18.9700	33356.1325
18.9800	33595.0900
18.9900	33166.1300
19.0000	33591.4975
19.0100	33821.2825
19.0200	33581.0800
19.0300	33359.8350
19.0400	33883.3425
19.0500	34760.7475
19.0600	34355.5975
19.0700	33837.6125
19.0800	33492.8175
19.0900	33578.9500
19.1000	33281.4375
19.1100	33005.2500
19.1200	33011.2500
19.1300	33590.1625
19.1400	33421.5675
19.1500	33111.0525
19.1600	32655.6225
19.1700	33404.6225
19.1800	33650.4200
19.1900	33555.4975
19.2000	33688.4700
19.2100	33772.1275
19.2200	33783.3325
19.2300	33915.8825
19.2400	34049.5525
19.2500	34248.7475
19.2600	34344.3525
19.2700	34107.7950
19.2800	33895.3325
19.2900	33882.9725
19.3000	33823.1250
19.3100	33684.5775
19.3200	33753.9350
19.3300	34178.1725
19.3400	34082.0800
19.3500	34108.3175
19.3600	34189.0725
19.3700	34860.2650
19.3800	34169.3900
19.3900	33638.4675
19.4000	34183.6525
19.4100	34575.4850
19.4200	34241.9175
19.4300	33653.1100
19.4400	33938.4475
19.4500	34080.7025
19.4600	33496.5350
19.4700	33205.8400
19.4800	33849.0700
19.4900	34232.4250
19.5000	34034.0100
19.5100	34046.1525
19.5200	34105.8850
19.5300	34412.3900
19.5400	34604.8600
19.5500	34670.4350
19.5600	34356.1725
19.5700	34177.4025
19.5800	34151.1550
19.5900	34540.5850
19.6000	34424.0100
19.6100	34618.4925
19.6200	34608.8500
19.6300	34568.7775
19.6400	34862.1075
19.6500	34818.7425
19.6600	34769.9325
19.6700	34161.3700
19.6800	34119.0400
19.6900	35043.7825
19.7000	35445.4350
19.7100	34552.9425
19.7200	33869.8350
19.7300	33925.4975
19.7400	34693.7575
19.7500	34840.2150
19.7600	34985.1525
19.7700	35572.0800
19.7800	34604.2475
19.7900	33583.9925
19.8000	33705.2075
19.8100	33967.4550
19.8200	34426.4000
19.8300	34309.7750
19.8400	35243.1450
19.8500	35696.6200
19.8600	34561.6275
19.8700	33799.3075
19.8800	33814.9575
19.8900	34833.5125
19.9000	35639.9425
19.9100	35585.2950
19.9200	35227.1475
19.9300	35395.4725
19.9400	35313.0525
19.9500	34973.4350
19.9600	34939.3050
19.9700	34796.7150
19.9800	34786.9175
19.9900	35088.0325
20.0000	35264.3525
20.0100	35076.7175
20.0200	34784.8550
20.0300	34765.8325
20.0400	34517.8775
20.0500	34786.2625
20.0600	35015.2425
20.0700	34983.3325
20.0800	35024.3975
20.0900	35080.7700
20.1000	35100.0000
20.1100	34618.7975
20.1200	33600.6300
20.1300	34141.3250
20.1400	35021.9300
20.1500	34877.2925
20.1600	34703.7175
20.1700	34818.4950
20.1800	34852.8125
20.1900	34477.5850
20.2000	34402.3250
20.2100	34763.7900
20.2200	34821.8325
20.2300	34689.2375
20.2400	34498.2325
20.2500	34490.9775
20.2600	33883.4425
20.2700	34075.5825
20.2800	34856.3225
20.2900	34888.4975
20.3000	34548.7550
20.3100	34889.1550
20.3200	35179.9125
20.3300	34514.4350
20.3400	34203.6350
20.3500	34383.4900
20.3600	34630.1150
20.3700	34829.9775
20.3800	34643.6250
20.3900	34094.1700
20.4000	34232.1025
20.4100	34888.4375
20.4200	35418.6675
20.4300	35639.7650
20.4400	35378.6375
20.4500	35242.8700
20.4600	35372.5550
20.4700	35165.9225
20.4800	34904.1750
20.4900	35294.8450
20.5000	35412.3525
20.5100	35164.9325
20.5200	35172.0500
20.5300	35686.3475
20.5400	35773.7075
20.5500	35675.6425
20.5600	35559.5450
20.5700	35597.1625
20.5800	35562.7800
20.5900	35691.8875
20.6000	35918.4800
20.6100	35380.2575
20.6200	35142.4225
20.6300	35588.5750
20.6400	35358.6300
20.6500	34673.0975
20.6600	34611.2025
20.6700	35148.4150
20.6800	35307.1275
20.6900	35255.4625
20.7000	35283.3325
20.7100	35225.2525
20.7200	34951.2375
20.7300	34937.9150
20.7400	35426.4250
20.7500	35536.0750
20.7600	34935.0050
20.7700	34997.1600
20.7800	34992.3350
20.7900	34545.7475
20.8000	35438.8675
20.8100	35631.8975
20.8200	34941.4200
20.8300	35563.2500
20.8400	35688.7525
20.8500	35342.8825
20.8600	35702.9625
20.8700	35652.1725
20.8800	36311.6175
20.8900	36593.3675
20.9000	35957.9275
20.9100	35548.1175
20.9200	35385.9175
20.9300	35226.8400
20.9400	35237.4425
20.9500	35089.7450
20.9600	35691.2100
20.9700	36151.2250
20.9800	35503.2425
20.9900	35347.0225
21.0000	35277.1675
21.0100	34944.4850
21.0200	35422.7425
21.0300	35782.2475
21.0400	35313.7375
21.0500	35168.4975
21.0600	36216.4575
21.0700	36802.5425
21.0800	36821.3250
21.0900	36142.8275
21.1000	35561.2750
21.1100	35090.1925
21.1200	35350.6575
21.1300	35383.8100
21.1400	34833.0275
21.1500	35191.1425
21.1600	35203.7800
21.1700	35242.1750
21.1800	35886.2100
21.1900	36109.5000
21.2000	35155.6875
21.2100	35160.9450
21.2200	36026.0250
21.2300	35726.0900
21.2400	35235.7250
21.2500	36054.7225
21.2600	36024.4575
21.2700	35627.2000
21.2800	35242.2025
21.2900	35203.5325
21.3000	35814.6350
21.3100	36088.0275
21.3200	36306.3550
21.3300	36322.6425
21.3400	35925.8675
21.3500	36536.6700
21.3600	36878.1875
21.3700	36503.2525
21.3800	36305.2050
21.3900	36047.7300
21.4000	35563.0725
21.4100	35141.7450
21.4200	35446.5200
21.4300	35837.3475
21.4400	36332.9775
21.4500	36779.5500
21.4600	37012.8125
21.4700	36270.2175
21.4800	35500.0000
21.4900	35598.4000
21.5000	36121.2000
21.5100	36410.7350
21.5200	35593.2125
21.5300	35315.2125
21.5400	35873.5825
21.5500	36065.5550
21.5600	36263.1000
21.5700	36245.9975
21.5800	36305.8925
21.5900	36737.9350
21.6000	36226.0350
21.6100	35131.9175
21.6200	35060.7350
21.6300	35172.7850
21.6400	35343.3275
21.6500	36212.8000
21.6600	36259.8850
21.6700	35692.0550
21.6800	36172.3325
21.6900	36304.3025
21.7000	36380.2175
21.7100	36502.9500
21.7200	36084.9700
21.7300	36263.8375
21.7400	36201.6725
21.7500	36170.3900
21.7600	36346.4425
21.7700	36075.7150
21.7800	35639.8950
21.7900	35859.0150
21.8000	36387.1475
21.8100	36284.5775
21.8200	36143.1600
21.8300	36588.5925
21.8400	36811.6325
21.8500	36477.3900
21.8600	36403.1275
21.8700	36079.3625
21.8800	35983.4550
21.8900	36549.3250
21.9000	36183.5325
21.9100	35130.3775
21.9200	35254.8925
21.9300	36090.3150
21.9400	36681.4525
21.9500	36626.3400
21.9600	35960.0550
21.9700	36142.6800
21.9800	36243.2750
21.9900	35680.3275
22.0000	35677.6700
22.0100	35748.5900
22.0200	35962.3300
22.0300	36587.0750
22.0400	36790.5100
22.0500	36616.0325
22.0600	36331.5175
22.0700	36393.6550
22.0800	36272.6175
22.0900	36109.4450
22.1000	36324.9675
22.1100	36216.4025
22.1200	36175.0875
22.1300	36250.0050
22.1400	36216.7075
22.1500	36441.1300
22.1600	36799.7425
22.1700	36908.2275
22.1800	36933.3325
22.1900	36842.2650
22.2000	36303.4600
22.2100	35998.6750
22.2200	36397.5025
22.2300	36402.7850
22.2400	35754.9150
22.2500	35777.5125
22.2600	36224.8775
22.2700	36290.7500
22.2800	36415.5400
22.2900	36270.5750
22.3000	36630.3150
22.3100	36906.7775
22.3200	36485.1250
22.3300	36294.1200
22.3400	35955.5500
22.3500	35797.9225
22.3600	36613.7650
22.3700	37050.9750
22.3800	36287.0675
22.3900	36165.3975
22.4000	36572.6975
22.4100	36795.2225
22.4200	36563.2000
22.4300	36512.1925
22.4400	36900.0000
22.4500	36643.0550
22.4600	36238.3475
22.4700	36380.3600
22.4800	36795.3425
22.4900	36165.5050
22.5000	35350.0000
22.5100	35636.9875
22.5200	36157.0175
22.5300	36295.8550
22.5400	36724.2400
22.5500	36903.3300
22.5600	36751.9225
22.5700	36995.4400
22.5800	36869.2400
22.5900	36761.4025
22.6000	36384.5875
22.6100	35970.3275
22.6200	36379.8300
22.6300	36775.2500
22.6400	36655.9000
22.6500	37005.6500
22.6600	37193.4500
22.6700	36711.7675
22.6800	36663.3800
22.6900	37000.0000
22.7000	36470.3475
22.7100	35928.9025
22.7200	36007.7700
22.7300	36218.4300
22.7400	36961.5300
22.7500	36969.4400
22.7600	36539.6650
22.7700	36546.4125
22.7800	36287.3175
22.7900	36288.3825
22.8000	36562.8325
22.8100	37266.3000
22.8200	37547.6075
22.8300	37083.4850
22.8400	36572.1025
22.8500	36721.6850
22.8600	36815.3700
22.8700	36433.6675
22.8800	36635.5125
22.8900	37194.1800
22.9000	37190.7075
22.9100	37395.8700
22.9200	37431.7775
22.9300	37072.7000
22.9400	37387.1800
22.9500	37378.5900
22.9600	37093.2225
22.9700	37010.7025
22.9800	36542.1075
22.9900	36665.3800
23.0000	36915.0100
23.0100	36383.0050
23.0200	35536.8900
23.0300	35318.9325
23.0400	35888.7425
23.0500	36220.5875
23.0600	36668.5000
23.0700	37575.4075
23.0800	37786.4550
23.0900	37157.2350
23.1000	37292.2950
23.1100	37511.8050
23.1200	36778.7200
23.1300	36888.5750
23.1400	37637.9750
23.1500	37274.4150
23.1600	36250.8525
23.1700	36363.4375
23.1800	37097.2425
23.1900	37185.3700
23.2000	37064.3875
23.2100	36802.0050
23.2200	37004.9375
23.2300	36959.4150
23.2400	36159.7950
23.2500	36566.0650
23.2600	37097.0675
23.2700	36869.5225
23.2800	37025.0900
23.2900	36935.6750
23.3000	36409.8625
23.3100	36476.6200
23.3200	36849.3500
23.3300	36731.0250
23.3400	36793.0200
23.3500	37243.8125
23.3600	37652.2575
23.3700	37057.2700
23.3800	36438.1425
23.3900	36136.5100
23.4000	36110.4700
23.4100	36564.2050
23.4200	36554.9650
23.4300	36906.2050
23.4400	37496.9875
23.4500	37533.8925
23.4600	37085.7850
23.4700	36700.4950
23.4800	37143.5875
23.4900	37254.1550
23.5000	37056.9550
23.5100	37235.9900
23.5200	37083.7625
23.5300	37116.5425
23.5400	37639.8850
23.5500	37671.3675
23.5600	37297.2450
23.5700	37254.1500
23.5800	37416.3850
23.5900	37434.1775
23.6000	37098.0925
23.6100	36751.4625
23.6200	36110.3625
23.6300	36893.4700
23.6400	37797.0900
23.6500	37555.6650
23.6600	37011.8650
23.6700	36972.1350
23.6800	37594.9500
23.6900	37807.1450
23.7000	37358.3150
23.7100	37243.1900
23.7200	36614.5100
23.7300	35689.5050
23.7400	36138.2150
23.7500	36951.5650
23.7600	37072.9550
23.7700	36743.0200
23.7800	35959.3550
23.7900	36274.8325
23.8000	37704.8900
23.8100	37681.2725
23.8200	37166.3050
23.8300	37193.8325
23.8400	37149.4200
23.8500	37020.2250
23.8600	37063.4625
23.8700	36899.4900
23.8800	37206.9825
23.8900	37133.0100
23.9000	37160.4625
23.9100	37288.1350
23.9200	38013.2800
23.9300	38032.4450
23.9400	36933.4875
23.9500	36736.7275
23.9600	36903.0200
23.9700	36560.6625
23.9800	36329.7925
23.9900	36589.6025
24.0000	37171.5575
24.0100	36842.7350
24.0200	37065.5400
24.0300	37635.8950
24.0400	37862.7475
24.0500	37218.6750
24.0600	36536.5475
24.0700	36710.2200
24.0800	37684.3325
24.0900	37988.6325
24.1000	37921.4175
24.1100	37633.2150
24.1200	37660.2400
24.1300	37532.6800
24.1400	36846.3775
24.1500	36950.2600
24.1600	37268.1475
24.1700	37089.4550
24.1800	36686.4575
24.1900	36455.4425
24.2000	36675.9750
24.2100	37065.5025
24.2200	37304.3375
24.2300	36907.7100
24.2400	37248.9475
24.2500	37909.8675
24.2600	37595.3375
24.2700	37216.3625
24.2800	37235.5425
24.2900	37552.2275
24.3000	37239.8350
24.3100	36989.9800
24.3200	36491.5800
24.3300	36102.7825
24.3400	36751.1475
24.3500	37254.8250
24.3600	37082.0800
24.3700	37015.9850
24.3800	37247.7175
24.3900	37334.0825
24.4000	37099.0825
24.4100	37128.2050
24.4200	36929.3675
24.4300	36951.4925
24.4400	37610.8950
24.4500	37943.0700
24.4600	37528.6450
24.4700	37233.1375
24.4800	37289.1350
24.4900	37667.4200
24.5000	36998.8150
24.5100	36898.2175
24.5200	36965.2800
24.5300	37017.4400
24.5400	37322.6100
24.5500	37725.7475
24.5600	37537.5050
24.5700	36835.8100
24.5800	36619.9500
24.5900	36301.0775
24.6000	36805.5600
24.6100	37087.0225
24.6200	37252.3450
24.6300	37998.6550
24.6400	38479.9450
24.6500	37669.9225
24.6600	36417.7650
24.6700	36252.2050
24.6800	37538.7675
24.6900	38476.8000
24.7000	38080.0575
24.7100	38085.0350
24.7200	37595.7200
24.7300	36873.6900
24.7400	36874.0375
24.7500	37408.4900
24.7600	38071.7325
24.7700	38202.4000
24.7800	37287.4300
24.7900	36916.6675
24.8000	37175.0650
24.8100	37689.5950
24.8200	37567.3800
24.8300	37210.0125
24.8400	37161.8475
24.8500	37336.2200
24.8600	37390.4900
24.8700	37186.1600
24.8800	37483.9800
24.8900	37306.8950
24.9000	36980.0700
24.9100	37655.4050
24.9200	38495.4025
24.9300	38571.4000
24.9400	38041.1750
24.9500	37216.0825
24.9600	36876.8750
24.9700	36460.8600
24.9800	36761.8600
24.9900	37699.9950
25.0000	37533.8300
25.0100	37016.6050
25.0200	37326.2750
25.0300	37795.0825
25.0400	37517.5625
25.0500	37580.4700
25.0600	37941.1125
25.0700	37610.7150
25.0800	37672.1325
25.0900	37546.9225
25.1000	37086.9275
25.1100	37053.7450
25.1200	38124.4550
25.1300	38840.4125
25.1400	38403.0525
25.1500	37690.6300
25.1600	37485.8550
25.1700	37284.4025
25.1800	37490.4175
25.1900	37997.0150
25.2000	37732.3450
25.2100	37381.9100
25.2200	37353.1550
25.2300	37952.0975
25.2400	37820.6375
25.2500	36659.0550
25.2600	37136.0750
25.2700	37602.4275
25.2800	36848.2800
25.2900	36806.2250
25.3000	36860.6225
25.3100	37651.9400
25.3200	37716.6300
25.3300	37357.7750
25.3400	37761.4350
25.3500	37904.6550
25.3600	38416.4525
25.3700	37739.4175
25.3800	37295.4400
25.3900	36945.1925
25.4000	36692.7075
25.4100	37198.1500
25.4200	37774.3150
25.4300	37433.5275
25.4400	37562.6475
25.4500	38380.3050
25.4600	37722.7775
25.4700	36635.5750
25.4800	36375.2250
25.4900	38050.1075
25.5000	38326.1850
25.5100	37537.2500
25.5200	37694.9675
25.5300	37542.7200
25.5400	37096.3800
25.5500	36696.6175
25.5600	36841.0025
25.5700	37653.9700
25.5800	37327.8100
25.5900	37465.6375
25.6000	37385.5300
25.6100	37567.8125
25.6200	37382.6625
25.6300	37529.5375
25.6400	37590.1750
25.6500	37669.6325
25.6600	37735.6175
25.6700	37241.4000
25.6800	37290.0650
25.6900	37973.7225
25.7000	38487.5450
25.7100	38111.5125
25.7200	37095.9725
25.7300	36660.0575
25.7400	37351.4600
25.7500	37616.0750
25.7600	37617.7975
25.7700	37904.1575
25.7800	37492.6200
25.7900	37547.7725
25.8000	38154.9075
25.8100	37779.0700
25.8200	37390.7200
25.8300	37410.9050
25.8400	37931.3625
25.8500	38198.0800
25.8600	37524.8775
25.8700	37412.9825
25.8800	37420.3025
25.8900	36967.9850
25.9000	37118.6225
25.9100	37143.4400
25.9200	37264.1250
25.9300	37765.7125
25.9400	38122.3350
25.9500	38727.3975
25.9600	38201.8150
25.9700	37582.1025
25.9800	37433.2825
25.9900	36912.5575
26.0000	37143.8850
26.0100	37110.6125
26.0200	37428.3050
26.0300	38151.2325
26.0400	38351.4000
26.0500	38327.8925
26.0600	37971.4475
26.0700	37551.2800
26.0800	37792.5100
26.0900	37986.1050
26.1000	37176.9325
26.1100	37522.2775
26.1200	37407.2450
26.1300	36615.8975
26.1400	37414.0425
26.1500	38148.4825
26.1600	38147.0075
26.1700	37626.2625
26.1800	37268.3550
26.1900	37620.0000
26.2000	37958.5550
26.2100	37034.7875
26.2200	37468.7225
26.2300	37750.8375
26.2400	38357.8775
26.2500	38965.5350
26.2600	38699.0325
26.2700	38336.7425
26.2800	38580.6500
26.2900	38108.3250
26.3000	37514.8275
26.3100	37215.6825
26.3200	37198.0675
26.3300	37515.6725
26.3400	37422.1375
26.3500	37943.7800
26.3600	38117.3750
26.3700	36883.8700
26.3800	37467.5125
26.3900	38295.8200
26.4000	38245.8100
26.4100	38125.6600
26.4200	37517.5400
26.4300	37129.0550
26.4400	37100.7550
26.4500	36916.4375
26.4600	37163.4475
26.4700	37881.1775
26.4800	38017.1075
26.4900	37150.5800
26.5000	36606.4100
26.5100	36910.2825
26.5200	37158.0800
26.5300	37388.8650
26.5400	38117.7550
26.5500	38275.0600
26.5600	37745.3225
26.5700	37161.9700
26.5800	37347.2725
26.5900	37606.2350
26.6000	37234.3275
26.6100	38124.9400
26.6200	37899.0950
26.6300	37855.6650
26.6400	37216.7425
26.6500	36442.2800
26.6600	37555.3200
26.6700	37876.6550
26.6800	37823.2850
26.6900	37923.2250
26.7000	37930.5025
26.7100	37557.5125
26.7200	36960.4175
26.7300	36500.1950
26.7400	36268.3725
26.7500	36263.4300
26.7600	37025.1475
26.7700	37250.0750
26.7800	37805.5925
26.7900	38522.1325
26.8000	37796.2375
26.8100	37865.8675
26.8200	38007.8200
26.8300	37613.6900
26.8400	38002.1025
26.8500	38194.4675
26.8600	38296.2625
26.8700	38324.6925
26.8800	37661.0450
26.8900	37857.8925
26.9000	38310.4700
26.9100	37907.7700
26.9200	37765.6775
26.9300	37514.3225
26.9400	37346.3525
26.9500	37705.5775
26.9600	37887.4175
26.9700	37359.3175
26.9800	36691.1075
26.9900	37528.5925
27.0000	37873.6650
27.0100	37806.2425
27.0200	36730.1950
27.0300	36734.6875
27.0400	37536.1725
27.0500	37775.4850
27.0600	38003.3875
27.0700	38263.1750
27.0800	38110.6900
27.0900	37611.1150
27.1000	37803.2375
27.1100	38216.2025
27.1200	38399.0600
27.1300	37770.0475
27.1400	37415.4850
27.1500	37661.6600
27.1600	37315.2725
27.1700	37145.0050
27.1800	37394.8750
27.1900	36974.0100
27.2000	37267.2650
27.2100	37419.3225
27.2200	37033.5325
27.2300	37456.6650
27.2400	38066.7175
27.2500	37953.6125
27.2600	37439.6300
27.2700	36261.5775
27.2800	36991.1900
27.2900	37481.5550
27.3000	37231.2400
27.3100	37809.0275
27.3200	38410.0750
27.3300	37722.1500
27.3400	37038.1350
27.3500	37266.6675
27.3600	37282.6850
27.3700	37350.0000
27.3800	37235.3825
27.3900	37080.0800
27.4000	38461.1850
27.4100	38130.1225
27.4200	37116.6675
27.4300	37270.2325
27.4400	37864.6050
27.4500	37460.7900
27.4600	36968.9600
27.4700	36820.9575
27.4800	36911.6200
27.4900	37546.9250
27.5000	37606.8750
27.5100	37936.3875
27.5200	37746.0350
27.5300	36854.5725
27.5400	37110.2875
27.5500	37818.2625
27.5600	37656.8650
27.5700	37568.7050
27.5800	38992.5600
27.5900	38508.9225
27.6000	38505.5325
27.6100	38158.1825
27.6200	37523.5575
27.6300	37653.8750
27.6400	37717.8300
27.6500	37514.2025
27.6600	37260.8575
27.6700	37178.3350
27.6800	36749.3550
27.6900	36110.9850
27.7000	36909.1150
27.7100	37158.9450
27.7200	37874.7700
27.7300	38261.0925
27.7400	37574.8575
27.7500	37612.1500
27.7600	38019.6350
27.7700	38024.4325
27.7800	37296.5250
27.7900	36158.1250
27.8000	37388.0225
27.8100	38385.6800
27.8200	38279.4150
27.8300	36410.9400
27.8400	36665.6000
27.8500	37694.1950
27.8600	37709.4225
27.8700	37456.8775
27.8800	37340.7425
27.8900	37953.5050
27.9000	38393.2500
27.9100	39074.0150
27.9200	38077.2600
27.9300	37250.0000
27.9400	37365.5150
27.9500	37970.2575
27.9600	37735.8600
27.9700	36904.5050
27.9800	37313.7600
27.9900	38020.9000
28.0000	38489.7375
28.0100	38246.7800
28.0200	37219.2125
28.0300	37365.1825
28.0400	38052.0125
28.0500	37609.7550
28.0600	36633.3325
28.0700	36745.6375
28.0800	37587.1600
28.0900	38532.1375
28.1000	37335.1150
28.1100	37709.4625
28.1200	38145.1075
28.1300	38104.4875
28.1400	38023.6300
28.1500	37932.8450
28.1600	37738.1450
28.1700	37838.5425
28.1800	38326.3150
28.1900	38733.2275
28.2000	39002.5750
28.2100	38769.5475
28.2200	38436.4125
28.2300	38175.6975
28.2400	38072.8150
28.2500	36580.1550
28.2600	37421.7000
28.2700	38163.9350
28.2800	37450.9575
28.2900	37639.3525
28.3000	37430.4075
28.3100	37236.1000
28.3200	37417.2500
28.3300	36977.0075
28.3400	36243.4425
28.3500	36812.8525
28.3600	38053.9350
28.3700	38420.0275
28.3800	37647.7800
28.3900	36702.1200
28.4000	36647.6350
28.4100	38401.5725
28.4200	38308.5850
28.4300	38398.7125
28.4400	38563.5050
28.4500	38106.8725
28.4600	37475.0925
28.4700	37644.4500
28.4800	38414.5800
28.4900	38262.9450
28.5000	37436.3975
28.5100	38309.5075
28.5200	37590.9400
28.5300	37054.0725
28.5400	37109.6800
28.5500	37291.9325
28.5600	37217.2800
28.5700	37171.8825
28.5800	37640.3975
28.5900	37162.4400
28.6000	36908.9025
28.6100	37191.9725
28.6200	37906.6950
28.6300	38116.2600
28.6400	38254.9050
28.6500	37432.5875
28.6600	37746.2625
28.6700	38129.0000
28.6800	37299.6825
28.6900	37131.0025
28.7000	36958.2900
28.7100	37902.0925
28.7200	38481.7425
28.7300	37574.8100
28.7400	36935.6525
28.7500	37832.0850
28.7600	38348.5950
28.7700	38259.3075
28.7800	38764.2975
28.7900	38812.2425
28.8000	38112.3975
28.8100	37229.8175
28.8200	37189.5150
28.8300	37209.4525
28.8400	38103.3600
28.8500	37760.1100
28.8600	38264.5525
28.8700	37943.8350
28.8800	36534.6050
28.8900	36323.8100
28.9000	37045.0325
28.9100	37646.4125
28.9200	38119.3900
28.9300	38513.2075
28.9400	37555.5325
28.9500	36165.3425
28.9600	37109.0550
28.9700	37314.8500
28.9800	37032.5525
28.9900	37509.4675
29.0000	37556.1025
29.0100	37109.9675
29.0200	36878.6900
29.0300	36888.6950
29.0400	37528.0625
29.0500	38387.7350
29.0600	37609.0475
29.0700	37743.4400
29.0800	38122.3250
29.0900	37414.2750
29.1000	36677.2000
29.1100	38079.1825
29.1200	37205.7650
29.1300	37687.1350
29.1400	38390.4900
29.1500	37912.0600
29.1600	37714.3125
29.1700	38010.8500
29.1800	37597.2150
29.1900	37787.2125
29.2000	38143.9000
29.2100	37477.2750
29.2200	37075.1325
29.2300	37600.8600
29.2400	38164.7350
29.2500	37897.2625
29.2600	37364.4600
29.2700	38345.2350
29.2800	38658.8500
29.2900	38390.9600
29.3000	38567.8900
29.3100	37162.8900
29.3200	37180.3475
29.3300	37960.4725
29.3400	37916.5100
29.3500	38338.2075
29.3600	38372.1975
29.3700	37955.5275
29.3800	37160.7225
29.3900	37058.5775
29.4000	36767.2325
29.4100	37274.6150
29.4200	38069.5325
29.4300	38321.9425
29.4400	38142.9575
29.4500	37836.8100
29.4600	38154.3775
29.4700	38611.8900
29.4800	37654.4600
29.4900	38432.2550
29.5000	38433.7750
29.5100	38700.2825
29.5200	38938.4575
29.5300	38761.4700
29.5400	38589.6600
29.5500	37182.9775
29.5600	37463.6175
29.5700	37984.3075
29.5800	38791.2500
29.5900	38926.4625
29.6000	39047.4575
29.6100	38424.4425
29.6200	37703.8925
29.6300	37231.7025
29.6400	37519.5925
29.6500	38085.5050
29.6600	37277.5850
29.6700	37547.6550
29.6800	38950.6475
29.6900	38591.8700
29.7000	37213.4600
29.7100	36637.7225
29.7200	38248.3000
29.7300	38204.9050
29.7400	38038.9525
29.7500	39059.8100
29.7600	38231.4775
29.7700	37221.4675
29.7800	37277.1500
29.7900	36512.9875
29.8000	37173.6750
29.8100	38387.2625
29.8200	39123.8900
29.8300	38196.6725
29.8400	37779.0875
29.8500	38036.3075
29.8600	37726.9375
29.8700	37588.2375
29.8800	37711.7425
29.8900	37965.6325
29.9000	37550.6700
29.9100	37601.6925
29.9200	38437.6325
29.9300	38153.8450
29.9400	38631.3300
29.9500	37718.4275
29.9600	37350.4450
29.9700	37814.4275
29.9800	38191.1325
29.9900	37961.0450
30.0000	38257.5250
30.0100	38000.0000
30.0200	37967.4675
30.0300	37064.8550
30.0400	38489.3700
30.0500	38145.2825
30.0600	37509.4250
30.0700	38321.7950
30.0800	37924.9225
30.0900	37115.4150
30.1000	37637.5800
30.1100	37780.5625
30.1200	37682.8825
30.1300	37653.4075
30.1400	37145.0650
30.1500	36358.2350
30.1600	37321.6125
30.1700	37528.3300
30.1800	37994.9000
30.1900	37809.3300
30.2000	38878.3150
30.2100	37206.8850
30.2200	37523.0100
30.2300	37808.1050
30.2400	37396.3425
30.2500	37225.7000
30.2600	37708.9725
30.2700	39045.4600
30.2800	38792.6800
30.2900	38371.1700
30.3000	37666.9400
30.3100	37693.5900
30.3200	38333.0800
30.3300	38304.7550
30.3400	37503.7300
30.3500	37760.8625
30.3600	37330.9875
30.3700	37162.8100
30.3800	38197.8725
30.3900	38024.1900
30.4000	38701.5625
30.4100	38841.1650
30.4200	37952.3050
30.4300	38197.5575
30.4400	37925.7650
30.4500	39038.6050
30.4600	37517.4650
30.4700	37634.7900
30.4800	37871.2750
30.4900	38683.7550
30.5000	38759.9900
30.5100	37265.3175
30.5200	36915.7975
30.5300	36651.0650
30.5400	37048.8625
30.5500	36503.6825
30.5600	39000.1175
30.5700	39133.1125
30.5800	38350.2475
30.5900	37917.0600
30.6000	38232.8575
30.6100	38898.6000
30.6200	38949.8650
30.6300	37189.1500
30.6400	37432.3625
30.6500	37931.0925
30.6600	37336.3800
30.6700	37764.2075
30.6800	37716.9800
30.6900	37518.0400
30.7000	37136.1925
30.7100	37282.1250
30.7200	37646.8275
30.7300	37402.3125
30.7400	37251.4775
30.7500	38074.6350
30.7600	38050.3675
30.7700	38626.5500
30.7800	38534.5550
30.7900	38056.1950
30.8000	38707.7250
30.8100	38486.6025
30.8200	39435.8825
30.8300	38005.6250
30.8400	37720.8775
30.8500	36929.7775
30.8600	37916.0675
30.8700	38260.8075
30.8800	38348.4850
30.8900	37793.9675
30.9000	38469.7800
30.9100	39953.3975
30.9200	38628.4300
30.9300	38648.9425
30.9400	38160.8700
30.9500	37872.9950
30.9600	38013.2275
30.9700	37642.3500
30.9800	37552.0100
30.9900	36964.8275
31.0000	37551.0600
31.0100	37388.0825
31.0200	38243.2600
31.0300	37504.5550
31.0400	37045.7925
31.0500	38150.8125
31.0600	38296.6325
31.0700	37458.8725
31.0800	37223.1800
31.0900	37669.0275
31.1000	38264.5825
31.1100	37444.2650
31.1200	37803.6900
31.1300	38316.2675
31.1400	38301.1200
31.1500	38203.4225
31.1600	38618.2475
31.1700	38472.5675
31.1800	38065.0000
31.1900	37375.6175
31.2000	37879.5450
31.2100	37418.8925
31.2200	37960.9475
31.2300	37454.7675
31.2400	37561.3925
31.2500	38958.4375
31.2600	37002.2450
31.2700	36756.8900
31.2800	37899.6725
31.2900	38684.0575
31.3000	37456.7825
31.3100	37607.1950
31.3200	36963.6125
31.3300	37745.1625
31.3400	37162.9075
31.3500	36672.2775
31.3600	37428.5400
31.3700	38895.7500
31.3800	37951.0625
31.3900	37884.1400
31.4000	38612.3900
31.4100	38079.7900
31.4200	38239.9525
31.4300	38503.1100
31.4400	37868.4775
31.4500	37959.7300
31.4600	38661.4150
31.4700	36979.9950
31.4800	36993.7225
31.4900	37063.0400
31.5000	36735.9125
31.5100	38023.1175
31.5200	38587.6450
31.5300	39449.8600
31.5400	38808.7275
31.5500	37997.3250
31.5600	37385.1250
31.5700	37365.6800
31.5800	39074.8325
31.5900	38948.4125
31.6000	38041.1975
31.6100	37263.8175
31.6200	37779.4100
31.6300	38379.0550
31.6400	38260.5475
31.6500	38608.8500
31.6600	37463.9125
31.6700	38068.9600
31.6800	37945.3675
31.6900	38166.7725
31.7000	38821.0000
31.7100	38524.7225
31.7200	38391.2675
31.7300	38367.8100
31.7400	37296.2425
31.7500	36456.9950
31.7600	37825.4175
31.7700	37855.9150
31.7800	38762.9625
31.7900	39111.6875
31.8000	37448.8225
31.8100	38351.4400
31.8200	38618.5475
31.8300	37723.2775
31.8400	37233.8000
31.8500	37800.7925
31.8600	37234.1950
31.8700	37414.1125
31.8800	38494.2350
31.8900	37016.0475
31.9000	37190.4475
31.9100	37232.0125
31.9200	37632.0700
31.9300	37927.2100
31.9400	37704.9400
31.9500	37912.9300
31.9600	38193.3750
31.9700	37360.6075
31.9800	37161.1175
31.9900	38035.4900
32.0000	38116.6675
32.0100	37659.2450
32.0200	38302.3575
32.0300	37635.7375
32.0400	39058.0175
32.0500	39032.7125
32.0600	37740.0175
32.0700	37358.4650
32.0800	38061.9025
32.0900	38436.7075
32.1000	37420.7050
32.1100	37619.6475
32.1200	37983.0625
32.1300	37229.9400
32.1400	37724.5425
32.1500	38614.3675
32.1600	38352.7025
32.1700	37863.9650
32.1800	38042.8700
32.1900	37885.8225
32.2000	38228.1200
32.2100	38281.7175
32.2200	38373.5800
32.2300	37481.4675
32.2400	37563.5875
32.2500	37613.3550
32.2600	37226.6250
32.2700	37348.2425
32.2800	37052.0450
32.2900	37810.1900
32.3000	38453.6075
32.3100	38008.2800
32.3200	38308.6250
32.3300	38603.8600
32.3400	37663.3350
32.3500	37684.2200
32.3600	37491.3525
32.3700	37481.5600
32.3800	37661.9400
32.3900	37579.2150
32.4000	37284.2475
32.4100	37175.7275
32.4200	37849.5175
32.4300	38719.5750
32.4400	38282.9675
32.4500	37653.6900
32.4600	36843.0650
32.4700	38347.9200
32.4800	38742.2150
32.4900	38146.0775
32.5000	38229.0950
32.5100	38146.7050
32.5200	38487.2500
32.5300	37590.1825
32.5400	37658.1175
32.5500	37933.5250
32.5600	37863.7150
32.5700	38232.1375
32.5800	39193.9750
32.5900	38083.7175
32.6000	37916.6675
32.6100	38224.4925
32.6200	38647.5300
32.6300	38787.8325
32.6400	38682.9675
32.6500	38842.0975
32.6600	38501.4300
32.6700	37471.8250
32.6800	38427.5725
32.6900	39108.2150
32.7000	38731.6550
32.7100	38972.4375
32.7200	38216.3775
32.7300	38419.9000
32.7400	38219.6375
32.7500	38618.9750
32.7600	38741.3800
32.7700	37952.4000
32.7800	38253.6025
32.7900	38504.9350
32.8000	37896.5425
32.8100	37973.5525
32.8200	38953.8950
32.8300	38233.4100
32.8400	38345.3675
32.8500	38657.3825
32.8600	37979.3075
32.8700	37535.3725
32.8800	37281.8125
32.8900	37854.1525
32.9000	37763.1275
32.9100	36842.7025
32.9200	37690.5125
32.9300	37606.1275
32.9400	37796.0375
32.9500	38062.5500
32.9600	38443.5900
32.9700	38356.9350
32.9800	38547.7850
32.9900	38397.6025
33.0000	38323.8350
33.0100	38416.5375
33.0200	38133.9225
33.0300	38582.0100
33.0400	38410.3800
33.0500	38252.8400
33.0600	38944.2675
33.0700	38540.9375
33.0800	37882.0325
33.0900	38194.8275
33.1000	38195.7675
33.1100	37942.4450
33.1200	38211.5250
33.1300	38394.0200
33.1400	38261.1200
33.1500	39010.5375
33.1600	38443.9375
33.1700	38006.2150
33.1800	38443.5625
33.1900	38772.8975
33.2000	38661.7625
33.2100	37268.2975
33.2200	37410.4250
33.2300	36991.4750
33.2400	37588.1250
33.2500	38081.5400
33.2600	38570.7175
33.2700	38790.1425
33.2800	38242.4850
33.2900	37797.4600
33.3000	37467.6200
33.3100	38450.8350
33.3200	38663.9650
33.3300	39001.6050
33.3400	38243.8475
33.3500	38236.6325
33.3600	37667.8200
33.3700	38176.2625
33.3800	37924.5050
33.3900	37988.9750
33.4000	38655.5050
33.4100	37603.6975
33.4200	37574.6925
33.4300	38572.9125
33.4400	38780.5150
33.4500	38063.6950
33.4600	38096.4500
33.4700	37787.8375
33.4800	37468.0850
33.4900	38562.0975
33.5000	38082.8850
33.5100	38071.1425
33.5200	38375.4250
33.5300	37910.3950
33.5400	38432.5850
33.5500	38580.4100
33.5600	37992.8375
33.5700	38690.0325
33.5800	38345.5700
33.5900	37877.0450
33.6000	36964.6850
33.6100	37467.5325
33.6200	37466.2500
33.6300	37119.0475
33.6400	37131.9300
33.6500	37409.2600
33.6600	37603.0225
33.6700	37864.9725
33.6800	38583.8600
33.6900	39440.8700
33.7000	39572.8075
33.7100	39267.7500
33.7200	38833.4100
33.7300	38709.2975
33.7400	39445.6950
33.7500	37868.9225
33.7600	37629.1325
33.7700	38789.5775
33.7800	38401.0700
33.7900	37925.7675
33.8000	37809.5000
33.8100	37422.2700
33.8200	38142.1750
33.8300	37807.9625
33.8400	37885.2525
33.8500	38767.3375
33.8600	38079.4925
33.8700	37289.0750
33.8800	37176.8450
33.8900	38041.7675
33.9000	38169.5800
33.9100	37654.4325
33.9200	37627.0225
33.9300	37850.6150
33.9400	37485.6925
33.9500	37890.8275
33.9600	36361.8325
33.9700	36870.1700
33.9800	37726.3275
33.9900	38748.9050
34.0000	39033.2000
34.0100	38358.5450
34.0200	37532.2450
34.0300	38203.1750
34.0400	38483.0075
34.0500	37611.6725
34.0600	37224.3450
34.0700	37633.4700
34.0800	37763.2300
34.0900	37885.6475
34.1000	37903.4575
34.1100	38071.6100
34.1200	38261.7700
34.1300	38115.4600
34.1400	38422.3075
34.1500	38977.3450
34.1600	38231.9275
34.1700	38000.0000
34.1800	38197.0000
34.1900	38250.0000
34.2000	37895.9200
34.2100	38009.6725
34.2200	38302.3750
34.2300	37974.1100
34.2400	38010.4975
34.2500	38651.0375
34.2600	38464.1450
34.2700	38692.8350
34.2800	38926.7425
34.2900	38745.1975
34.3000	38318.8300
34.3100	39062.2075
34.3200	39105.0200
34.3300	38400.5450
34.3400	38229.6450
34.3500	38596.4900
34.3600	37922.3825
34.3700	38075.5700
34.3800	38429.2150
34.3900	38577.5900
34.4000	38923.0475
34.4100	38267.7550
34.4200	37546.7950
34.4300	37915.7225
34.4400	38118.2000
34.4500	38390.8125
34.4600	38157.9225
34.4700	37796.7175
34.4800	38654.3600
34.4900	38689.4575
34.5000	38629.4925
34.5100	38120.6800
34.5200	37992.2800
34.5300	37756.8525
34.5400	38028.6000
34.5500	38414.4500
34.5600	37861.5775
34.5700	37245.6250
34.5800	37154.9150
34.5900	38020.2275
34.6000	38716.1575
34.6100	38951.7650
34.6200	37928.3200
34.6300	38374.7875
34.6400	38654.7425
34.6500	37981.8225
34.6600	37310.4475
34.6700	37812.4875
34.6800	37383.9875
34.6900	37689.0950
34.7000	37546.7725
34.7100	37033.3775
34.7200	37202.7675
34.7300	37804.2325
34.7400	38508.3050
34.7500	38519.7075
34.7600	38705.6325
34.7700	38783.3325
34.7800	38255.8950
34.7900	38535.0800
34.8000	38445.0925
34.8100	38792.6650
34.8200	39271.3700
34.8300	39345.8025
34.8400	38320.7725
34.8500	37633.5800
34.8600	38140.7500
34.8700	37614.1425
34.8800	37578.5300
34.8900	37824.3425
34.9000	37435.3650
34.9100	37929.9025
34.9200	38398.4900
34.9300	38508.1625
34.9400	38392.6125
34.9500	38151.6650
34.9600	37885.1525
34.9700	38064.2025
34.9800	38731.2650
34.9900	38488.4525
35.0000	37888.7950
35.0100	38831.4825
35.0200	39315.3000
35.0300	39115.9250
35.0400	38393.2025
35.0500	38498.7850
35.0600	38579.7925
35.0700	38885.9900
35.0800	39527.7025
35.0900	39495.9400
35.1000	38179.1000
35.1100	38884.2350
35.1200	38198.9275
35.1300	37543.2825
35.1400	38048.5425
35.1500	38706.0700
35.1600	38634.9400
35.1700	38671.8675
35.1800	38363.5300
35.1900	38342.8425
35.2000	38334.7000
35.2100	38705.4250
35.2200	38631.4950
35.2300	38416.5725
35.2400	38596.9500
35.2500	38634.8900
35.2600	38483.5525
35.2700	38602.6175
35.2800	38727.0775
35.2900	38267.0875
35.3000	37878.2575
35.3100	38197.7775
35.3200	37543.0275
35.3300	36523.2750
35.3400	37500.6450
35.3500	38824.4500
35.3600	38465.6300
35.3700	37864.0825
35.3800	38033.0225
35.3900	38054.1750
35.4000	38124.3850
35.4100	38130.7900
35.4200	38128.6175
35.4300	38551.2425
35.4400	38633.1500
35.4500	38850.3475
35.4600	37675.4300
35.4700	38452.1275
35.4800	38383.9100
35.4900	38922.4300
35.5000	39447.0675
35.5100	39758.7625
35.5200	39731.4475
35.5300	39126.5825
35.5400	38426.5475
35.5500	38209.6800
35.5600	38649.0625
35.5700	38101.2375
35.5800	38000.5750
35.5900	38106.9125
35.6000	37704.3775
35.6100	37886.4400
35.6200	37915.7250
35.6300	37890.1700
35.6400	38534.0650
35.6500	37732.3400
35.6600	37646.7500
35.6700	38163.1250
35.6800	38855.0625
35.6900	38533.6750
35.7000	38744.0450
35.7100	37800.7600
35.7200	37748.3300
35.7300	37560.3025
35.7400	38273.5825
35.7500	39522.8775
35.7600	39132.4900
35.7700	38265.5000
35.7800	37406.3850
35.7900	37481.3550
35.8000	38804.0575
35.8100	39652.5425
35.8200	39209.8000
35.8300	38869.0575
35.8400	38833.3325
35.8500	38533.1800
35.8600	38549.9550
35.8700	38639.7175
35.8800	38822.7425
35.8900	38554.7975
35.9000	39227.8125
35.9100	38474.1750
35.9200	37507.5225
35.9300	37999.6250
35.9400	37354.0375
35.9500	37409.0375
35.9600	38193.9475
35.9700	38804.3825
35.9800	39012.3550
35.9900	38508.3350
36.0000	38175.4375
36.0100	38087.7575
36.0200	38146.3600
36.0300	38194.7100
36.0400	38847.8700
36.0500	38684.3725
36.0600	38704.9625
36.0700	38691.9475
36.0800	38474.7325
36.0900	38241.5300
36.1000	38347.6275
36.1100	38173.4175
36.1200	37982.2525
36.1300	38649.4800
36.1400	40042.9575
36.1500	40212.1025
36.1600	39509.8125
36.1700	38327.9475
36.1800	38490.0350
36.1900	38951.7225
36.2000	38764.1375
36.2100	38700.5775
36.2200	39114.0600
36.2300	39333.5650
36.2400	38634.5325
36.2500	38685.4475
36.2600	38994.9375
36.2700	38938.4875
36.2800	38426.5150
36.2900	38689.8325
36.3000	38911.0875
36.3100	38799.9750
36.3200	38094.8275
36.3300	38776.3375
36.3400	38584.9175
36.3500	38033.9525
36.3600	37756.2550
36.3700	37987.3500
36.3800	39210.6775
36.3900	39032.4375
36.4000	38876.2400
36.4100	39060.4800
36.4200	39100.0000
36.4300	38813.9425
36.4400	38787.5875
36.4500	38652.2950
36.4600	38111.0275
36.4700	38771.5000
36.4800	39299.0675
36.4900	38993.9925
36.5000	38313.5575
36.5100	38181.1350
36.5200	38533.8825
36.5300	38388.7825
36.5400	38331.4325
36.5500	38328.8800
36.5600	38049.7275
36.5700	38101.4950
36.5800	38406.3950
36.5900	38223.6175
36.6000	38077.5100
36.6100	38397.5500
36.6200	38956.3975
36.6300	38658.2875
36.6400	37810.5475
36.6500	38266.6600
36.6600	38802.0100
36.6700	39039.1400
36.6800	39036.4000
36.6900	38477.5650
36.7000	37888.2000
36.7100	38114.1400
36.7200	38816.3300
36.7300	38868.8525
36.7400	38717.8550
36.7500	39299.5075
36.7600	39130.6100
36.7700	39533.9700
36.7800	39639.0450
36.7900	39536.6750
36.8000	39417.4375
36.8100	38971.2300
36.8200	38681.5400
36.8300	38782.1750
36.8400	38739.1975
36.8500	38751.5725
36.8600	38927.2475
36.8700	38650.3750
36.8800	38312.3875
36.8900	38423.7050
36.9000	38269.1575
36.9100	38391.1700
36.9200	38697.6800
36.9300	38635.7825
36.9400	39350.2950
36.9500	39195.9275
36.9600	39012.0325
36.9700	39179.6825
36.9800	38943.8400
36.9900	38405.9025
37.0000	38057.6350
37.0100	38171.7175
37.0200	38523.8350
37.0300	38447.2725
37.0400	38264.4750
37.0500	38254.1925
37.0600	38704.2975
37.0700	38675.1700
37.0800	38229.5625
37.0900	38607.0625
37.1000	38891.8000
37.1100	38368.7200
37.1200	38854.3850
37.1300	38390.9800
37.1400	38499.5250
37.1500	39226.7825
37.1600	39179.1225
37.1700	38878.5500
37.1800	38907.0500
37.1900	39457.1575
37.2000	39317.7650
37.2100	38834.0750
37.2200	38771.9100
37.2300	38241.8900
37.2400	38149.9550
37.2500	38624.0325
37.2600	38949.7400
37.2700	39043.5600
37.2800	38753.6750
37.2900	38076.6375
37.3000	38184.8575
37.3100	38959.5325
37.3200	39028.7950
37.3300	38246.1525
37.3400	38358.1625
37.3500	39089.4975
37.3600	38731.1575
37.3700	38454.9625
37.3800	38442.1925
37.3900	38221.4525
37.4000	38874.8000
37.4100	39023.2900
37.4200	38497.2925
37.4300	38824.2175
37.4400	39750.8400
37.4500	39720.7575
37.4600	38796.5075
37.4700	38678.0500
37.4800	39114.1500
37.4900	39256.6400
37.5000	39500.4325
37.5100	39036.1500
37.5200	38776.6525
37.5300	39053.1625
37.5400	38977.0300
37.5500	39328.6450
37.5600	39909.0300
37.5700	39615.5150
37.5800	39041.4425
37.5900	38807.0550
37.6000	38756.7400
37.6100	38601.2425
37.6200	38500.0000
37.6300	38222.8250
37.6400	38428.9325
37.6500	37958.9300
37.6600	38170.6450
37.6700	39179.5300
37.6800	39444.6500
37.6900	39127.3725
37.7000	38871.3150
37.7100	38826.4925
37.7200	39235.8475
37.7300	39330.3075
37.7400	39131.4050
37.7500	39102.9150
37.7600	39136.2300
37.7700	38749.3425
37.7800	37890.6450
37.7900	38234.3950
37.8000	38912.8425
37.8100	38851.1550
37.8200	38363.7125
37.8300	37750.1575
37.8400	37907.7700
37.8500	38161.2000
37.8600	38365.9100
37.8700	39375.6400
37.8800	39760.8625
37.8900	39609.6625
37.9000	39867.6875
37.9100	39934.2525
37.9200	39233.2600
37.9300	39052.9050
37.9400	39144.1975
37.9500	38922.5250
37.9600	38931.8725
37.9700	39496.2400
37.9800	38872.5900
37.9900	38848.8600
38.0000	39577.0850
38.0100	39513.5575
38.0200	39101.7925
38.0300	39326.7750
38.0400	39433.2375
38.0500	39435.6450
38.0600	39464.4050
38.0700	38924.9300
38.0800	39288.0925
38.0900	39453.9950
38.1000	39062.4475
38.1100	39210.5050
38.1200	39345.5075
38.1300	39458.3800
38.1400	39783.7525
38.1500	40034.8650
38.1600	40090.5800
38.1700	40506.8550
38.1800	40664.0850
38.1900	39575.1800
38.2000	39518.4150
38.2100	39571.8375
38.2200	39321.7675
38.2300	39828.4100
38.2400	40234.1400
38.2500	40813.6925
38.2600	40852.7600
38.2700	40119.2125
38.2800	39943.6150
38.2900	40576.4475
38.3000	41459.3075
38.3100	42175.0150
38.3200	41904.5325
38.3300	41075.5275
38.3400	41092.5950
38.3500	41819.9375
38.3600	42349.6800
38.3700	42981.8900
38.3800	43807.6200
38.3900	44076.2825
38.4000	44016.6675
38.4100	43602.8100
38.4200	43845.5050
38.4300	45234.5650
38.4400	46047.5250
38.4500	46283.2225
38.4600	46433.3325
38.4700	46314.4700
38.4800	46527.2375
38.4900	47604.6300
38.5000	48529.4825
38.5100	49188.7200
38.5200	50130.7925
38.5300	50872.6975
38.5400	51354.2675
38.5500	51893.2625
38.5600	52320.7425
38.5700	53129.0750
38.5800	53953.2725
38.5900	54537.1650
38.6000	55346.5225
38.6100	56019.1925
38.6200	57566.8025
38.6300	59978.1475
38.6400	61642.1650
38.6500	63579.6425
38.6600	66055.1375
38.6700	68183.5675
38.6800	71410.8250
38.6900	76567.5300
38.7000	82759.3775
38.7100	89295.2500
38.7200	96809.4450
38.7300	105853.6775
38.7400	117177.8700
38.7500	130846.1475
38.7600	145064.1000
38.7700	160414.8475
38.7800	178738.5625
38.7900	198521.6925
38.8000	218149.2900
38.8100	238915.8575
38.8200	258812.0700
38.8300	275131.7450
38.8400	286326.2975
38.8500	293337.8775
38.8600	293394.5375
38.8700	286004.7275
38.8800	273943.1075
38.8900	256735.3075
38.9000	233710.9050
38.9100	208361.6900
38.9200	183926.6825
38.9300	162965.4050
38.9400	145707.9800
38.9500	129343.4250
38.9600	115580.3600
38.9700	104829.6925
38.9800	96025.7375
38.9900	89494.0200
39.0000	84038.2225
39.0100	79380.3150
39.0200	75491.6850
39.0300	73027.9925
39.0400	69676.2850
39.0500	66781.2775
39.0600	65991.3375
39.0700	64086.9750
39.0800	62207.9600
39.0900	62018.0175
39.1000	61028.7250
39.1100	59276.2825
39.1200	58475.3300
39.1300	58003.1200
39.1400	57303.5950
39.1500	56124.7275
39.1600	55313.0600
39.1700	55311.5900
39.1800	54939.0300
39.1900	53786.4225
39.2000	52240.6425
39.2100	51409.1175
39.2200	51509.3675
39.2300	51448.0525
39.2400	51197.9150
39.2500	50094.3475
39.2600	49302.0325
39.2700	49390.9375
39.2800	49426.0500
39.2900	49356.6875
39.3000	49401.8700
39.3100	49289.1050
39.3200	48588.8225
39.3300	47738.8200
39.3400	47258.2050
39.3500	47082.7150
39.3600	46214.4625
39.3700	45641.9550
39.3800	46484.0225
39.3900	47133.3375
39.4000	47033.3875
39.4100	46883.5475
39.4200	47015.9225
39.4300	47017.6550
39.4400	46750.1750
39.4500	46352.3175
39.4600	45850.9825
39.4700	45956.3000
39.4800	46794.3300
39.4900	47127.8850
39.5000	46092.1775
39.5100	45793.9200
39.5200	46036.7375
39.5300	45783.3325
39.5400	45561.8650
39.5500	45636.5050
39.5600	46015.4825
39.5700	45739.9200
39.5800	45228.1450
39.5900	45450.1475
39.6000	45947.8050
39.6100	45944.1550
39.6200	45581.2050
39.6300	45219.1725
39.6400	45416.9550
39.6500	45303.6475
39.6600	45052.4650
39.6700	45509.3650
39.6800	45774.7475
39.6900	45605.7350
39.7000	44860.2475
39.7100	44709.7150
39.7200	45263.8025
39.7300	45189.2375
39.7400	45104.9925
39.7500	44790.9325
39.7600	44406.0850
39.7700	44626.7400
39.7800	45215.7425
39.7900	45746.5300
39.8000	45522.1975
39.8100	45183.3325
39.8200	44992.2775
39.8300	44552.7250
39.8400	44180.8475
39.8500	44415.0025
39.8600	44444.1350
39.8700	44207.5225
39.8800	44574.0000
39.8900	44608.6575
39.9000	44796.3600
39.9100	44955.6175
39.9200	44454.9675
39.9300	44656.2350
39.9400	45056.6600
39.9500	44674.3175
39.9600	44728.3100
39.9700	44607.5975
39.9800	43728.2250
39.9900	43258.2975
40.0000	43787.9950
40.0100	44861.9025
40.0200	45029.7300
40.0300	44785.5450
40.0400	44641.1925
40.0500	44159.5525
40.0600	43827.5475
40.0700	44195.5325
40.0800	44516.6675
40.0900	44284.7900
40.1000	43622.9125
40.1100	43475.1500
40.1200	43540.5975
40.1300	43184.6100
40.1400	43335.7700
40.1500	44040.0800
40.1600	44456.9350
40.1700	43989.5275
40.1800	43912.9075
40.1900	44198.6200
40.2000	44522.0825
40.2100	44761.3025
40.2200	44586.1925
40.2300	44291.2650
40.2400	43990.9350
40.2500	44015.1850
40.2600	44162.2675
40.2700	44240.9075
40.2800	44097.0275
40.2900	43670.5050
40.3000	43542.9000
40.3100	43961.9175
40.3200	43828.3300
40.3300	43607.5250
40.3400	43789.5450
40.3500	43797.2825
40.3600	43512.5025
40.3700	43354.3000
40.3800	43373.8025
40.3900	43925.4250
40.4000	43732.0850
40.4100	42994.7425
40.4200	43288.3600
40.4300	43694.9375
40.4400	44041.4250
40.4500	44158.9550
40.4600	43953.6725
40.4700	43901.8525
40.4800	44216.2450
40.4900	44537.2675
40.5000	43936.8900
40.5100	43325.9600
40.5200	43309.3025
40.5300	43572.1675
40.5400	43938.7100
40.5500	43585.0375
40.5600	43532.5050
40.5700	44068.6900
40.5800	44291.3550
40.5900	44351.6175
40.6000	44091.7100
40.6100	44101.0700
40.6200	43922.0250
40.6300	44061.7825
40.6400	44697.7975
40.6500	45047.0575
40.6600	44586.9475
40.6700	43572.2825
40.6800	42733.1075
40.6900	42717.1900
40.7000	43326.3325
40.7100	43918.8275
40.7200	44113.2725
40.7300	44407.7300
40.7400	44473.3350
40.7500	43625.7675
40.7600	43755.5150
40.7700	44274.0625
40.7800	44140.3275
40.7900	43840.3600
40.8000	43793.3475
40.8100	43200.7700
40.8200	43385.8825
40.8300	43969.6675
40.8400	44057.9250
40.8500	44319.5450
40.8600	43815.6650
40.8700	43356.0625
40.8800	43881.3725
40.8900	44181.3225
40.9000	43911.5175
40.9100	44168.1625
40.9200	44501.8125
40.9300	44395.5425
40.9400	44421.7575
40.9500	44266.7125
40.9600	43446.0925
40.9700	43135.5075
40.9800	42867.3950
40.9900	43101.5875
41.0000	43787.7725
41.0100	44135.0075
41.0200	44583.3700
41.0300	44747.2900
41.0400	44587.6350
41.0500	44347.7350
41.0600	43960.5125
41.0700	43502.6275
41.0800	43627.5675
41.0900	44364.2050
41.1000	43965.2275
41.1100	43215.7900
41.1200	43690.2150
41.1300	44042.3375
41.1400	43857.7450
41.1500	44121.8150
41.1600	44218.5950
41.1700	44131.1650
41.1800	44144.1250
41.1900	43484.5950
41.2000	43113.5950
41.2100	43194.4325
41.2200	42998.5525
41.2300	42786.5000
41.2400	43326.8375
41.2500	43872.4950
41.2600	43961.0700
41.2700	43717.0300
41.2800	43800.3225
41.2900	43856.7225
41.3000	43772.6625
41.3100	43707.1025
41.3200	43649.2125
41.3300	43747.8775
41.3400	44313.4400
41.3500	44223.1700
41.3600	44063.3175
41.3700	44036.8775
41.3800	43816.6675
41.3900	44035.8100
41.4000	44227.3850
41.4100	44003.4175
41.4200	44036.2625
41.4300	44202.5700
41.4400	44438.9300
41.4500	44402.2550
41.4600	43928.8325
41.4700	43522.0125
41.4800	43070.1550
41.4900	43024.9325
41.5000	43912.6900
41.5100	44635.0525
41.5200	44446.4850
41.5300	43852.1075
41.5400	44169.2950
41.5500	44567.9975
41.5600	44180.0325
41.5700	44565.1525
41.5800	44480.3325
41.5900	43718.6375
41.6000	43853.8225
41.6100	44245.3075
41.6200	43803.7600
41.6300	44157.1250
41.6400	44576.2125
41.6500	44210.0025
41.6600	44085.9275
41.6700	43757.5875
41.6800	43234.5650
41.6900	43335.8550
41.7000	43698.8325
41.7100	44635.2525
41.7200	45219.6175
41.7300	45033.9425
41.7400	44976.2650
41.7500	44979.4025
41.7600	44561.4625
41.7700	43965.7500
41.7800	44108.1400
41.7900	44966.6675
41.8000	44916.2125
41.8100	45211.2550
41.8200	45525.0925
41.8300	44865.8850
41.8400	44152.3575
41.8500	43784.3825
41.8600	44581.4250
41.8700	44556.2400
41.8800	44318.5375
41.8900	44849.3650
41.9000	45677.5850
41.9100	45869.2275
41.9200	44902.9250
41.9300	44596.5075
41.9400	44691.5600
41.9500	45291.7600
41.9600	45369.5575
41.9700	44999.3575
41.9800	45225.0525
41.9900	45066.6800
42.0000	44420.2075
42.0100	45023.4400
42.0200	45398.3400
42.0300	44560.1875
42.0400	44713.3200
42.0500	45095.7000
42.0600	45878.8625
42.0700	45400.6650
42.0800	44502.9250
42.0900	44869.0675
42.1000	45430.1675
42.1100	45284.7700
42.1200	45265.6750
42.1300	44772.7075
42.1400	44988.4700
42.1500	45253.5925
42.1600	45324.0325
42.1700	45713.9425
42.1800	45241.8950
42.1900	44390.8025
42.2000	44447.9900
42.2100	45099.4400
42.2200	45301.0000
42.2300	45236.9875
42.2400	45488.1300
42.2500	45689.3725
42.2600	45609.3775
42.2700	45870.8425
42.2800	45800.6075
42.2900	45758.0625
42.3000	46886.4875
42.3100	46965.6400
42.3200	46762.5200
42.3300	46561.7625
42.3400	46672.6775
42.3500	46523.4650
42.3600	46601.8175
42.3700	46537.9575
42.3800	46247.4175
42.3900	46056.6450
42.4000	46145.5350
42.4100	47226.8525
42.4200	48600.6350
42.4300	48606.7450
42.4400	47509.4800
42.4500	47067.5900
42.4600	47474.1625
42.4700	48540.3425
42.4800	48679.1425
42.4900	48936.1950
42.5000	48545.4400
42.5100	49371.0900
42.5200	49919.9325
42.5300	50495.2875
42.5400	50401.3775
42.5500	50305.0425
42.5600	50666.6675
42.5700	51053.7650
42.5800	51998.9650
42.5900	52718.2700
42.6000	53315.6450
42.6100	53482.7425
42.6200	54774.5050
42.6300	56565.6075
42.6400	56722.0325
42.6500	55972.5200
42.6600	56809.3625
42.6700	58669.8300
42.6800	59541.3750
42.6900	59915.3800
42.7000	60237.4375
42.7100	61661.7375
42.7200	62624.6900
42.7300	64601.1850
42.7400	66745.1375
42.7500	69055.3475
42.7600	70226.5150
42.7700	71350.2350
42.7800	71697.6150
42.7900	73202.1400
42.8000	74740.8750
42.8100	76327.2375
42.8200	78144.9025
42.8300	79747.9225
42.8400	81466.3625
42.8500	83384.5125
42.8600	86538.5075
42.8700	89190.6400
42.8800	90582.7825
42.8900	92452.4575
42.9000	96260.1375
42.9100	100208.6775
42.9200	103689.9825
42.9300	106851.1400
42.9400	110599.7525
42.9500	114009.5675
42.9600	119541.2675
42.9700	125291.7025
42.9800	131290.4350
42.9900	138505.4575
43.0000	146161.9625
43.0100	154034.6375
43.0200	164217.2550
43.0300	177219.9275
43.0400	191865.1900
43.0500	210835.8800
43.0600	232811.8550
43.0700	258519.2825
43.0800	292311.2250
43.0900	333409.8600
43.1000	378898.9675
43.1100	434527.6050
43.1200	499560.9175
43.1300	572356.4750
43.1400	654475.9400
43.1500	746189.1675
43.1600	837984.0050
43.1700	931212.6075
43.1800	1018583.3275
43.1900	1097377.9700
43.2000	1162144.2475
43.2100	1199571.1875
43.2200	1209200.9475
43.2300	1192686.1700
43.2400	1156257.5850
43.2500	1103348.2850
43.2600	1043663.6850
43.2700	988421.2525
43.2800	935863.1175
43.2900	889114.4550
43.3000	853866.8775
43.3100	822152.6425
43.3200	788121.6700
43.3300	753545.0450
43.3400	708489.4650
43.3500	652095.7975
43.3600	589346.6850
43.3700	525585.3150
43.3800	464170.8875
43.3900	409242.3675
43.4000	357959.3075
43.4100	311177.3125
43.4200	275106.6400
43.4300	243441.4000
43.4400	217597.4550
43.4500	198474.1600
43.4600	182350.7450
43.4700	168132.1800
43.4800	155523.5875
43.4900	145358.4175
43.5000	136588.4650
43.5100	127522.3925
43.5200	122719.7525
43.5300	117013.8475
43.5400	111221.9975
43.5500	107056.5925
43.5600	103298.1875
43.5700	99584.8500
43.5800	94012.2450
43.5900	92100.5550
43.6000	90106.4300
43.6100	86963.0325
43.6200	83465.4825
43.6300	79845.5575
43.6400	76402.6400
43.6500	74669.4350
43.6600	72670.8400
43.6700	70081.6900
43.6800	69154.3025
43.6900	68363.4950
43.7000	65919.8700
43.7100	63898.4250
43.7200	62629.4100
43.7300	61196.4325
43.7400	59742.7675
43.7500	58802.3075
43.7600	58733.2175
43.7700	58153.8050
43.7800	56564.1575
43.7900	55583.4550
43.8000	55081.6550
43.8100	54184.4950
43.8200	53649.2100
43.8300	53699.7600
43.8400	52884.2400
43.8500	52487.2825
43.8600	51815.6225
43.8700	51158.0175
43.8800	52014.7600
43.8900	53088.0300
43.9000	52089.4225
43.9100	52219.3325
43.9200	51652.1925
43.9300	49855.3775
43.9400	48893.9725
43.9500	49197.1150
43.9600	48859.2675
43.9700	48094.1100
43.9800	47448.1525
43.9900	48657.8675
44.0000	49771.2075
44.0100	49433.3325
44.0200	48947.3350
44.0300	47744.4825
44.0400	48160.2225
44.0500	48483.9700
44.0600	47757.3400
44.0700	47507.5975
44.0800	47566.7225
44.0900	46993.6225
44.1000	45554.1750
44.1100	45057.8425
44.1200	45959.5000
44.1300	46743.7225
44.1400	46775.8225
44.1500	47730.7125
44.1600	47352.5175
44.1700	47181.5525
44.1800	46400.8650
44.1900	46511.9350
44.2000	46813.8125
44.2100	45884.4500
44.2200	46054.5425
44.2300	45861.1825
44.2400	45671.7425
44.2500	45404.9750
44.2600	45852.7700
44.2700	46399.0650
44.2800	46218.1975
44.2900	45828.0700
44.3000	45985.6050
44.3100	46333.3425
44.3200	45513.5075
44.3300	45517.0800
44.3400	46283.4100
44.3500	46320.2500
44.3600	44838.3400
44.3700	44882.6900
44.3800	44876.5375
44.3900	45306.2250
44.4000	45989.5750
44.4100	45429.0350
44.4200	45420.9575
44.4300	45377.6425
44.4400	45084.0900
44.4500	44657.3050
44.4600	44729.3925
44.4700	45389.3525
44.4800	45679.7325
44.4900	45647.9375
44.5000	45338.0975
44.5100	45373.9350
44.5200	45048.7525
44.5300	44968.9925
44.5400	45486.3375
44.5500	45481.9200
44.5600	46629.2350
44.5700	46599.7475
44.5800	46454.2775
44.5900	46224.8725
44.6000	45070.8050
44.6100	45212.2525
44.6200	45586.8300
44.6300	45793.0400
44.6400	45088.1600
44.6500	44932.4950
44.6600	45175.0975
44.6700	45552.8175
44.6800	46836.6750
44.6900	47077.8250
44.7000	47435.2425
44.7100	47571.4275
44.7200	46785.1775
44.7300	46574.0075
44.7400	46574.1350
44.7500	46539.9950
44.7600	47767.3300
44.7700	47947.5550
44.7800	47548.0850
44.7900	48547.2725
44.8000	49747.3450
44.8100	48965.9100
44.8200	48100.7275
44.8300	48530.4950
44.8400	49149.7175
44.8500	49864.8200
44.8600	51288.3350
44.8700	51866.6475
44.8800	52204.6175
44.8900	52291.0225
44.9000	51888.5775
44.9100	52480.2450
44.9200	53749.8275
44.9300	53450.9150
44.9400	53696.5300
44.9500	55636.4875
44.9600	56809.4175
44.9700	57774.4600
44.9800	58095.5775
44.9900	59606.2775
45.0000	61728.2100
45.0100	63183.8375
45.0200	64557.6450
45.0300	65957.0525
45.0400	67548.7950
45.0500	70176.6700
45.0600	74213.1475
45.0700	78200.3475
45.0800	81147.0375
45.0900	84825.8050
45.1000	89700.3875
45.1100	94805.4600
45.1200	100090.7875
45.1300	104413.9300
45.1400	109320.5400
45.1500	115259.5750
45.1600	119446.5075
45.1700	122500.2100
45.1800	123541.4175
45.1900	125331.2950
45.2000	124710.2700
45.2100	122496.3400
45.2200	120677.8350
45.2300	116854.9475
45.2400	112132.4100
45.2500	106014.5825
45.2600	99849.0550
45.2700	93966.3025
45.2800	90428.5850
45.2900	85432.9900
45.3000	81922.1000
45.3100	78595.0125
45.3200	74415.0200
45.3300	70839.3000
45.3400	69084.5300
45.3500	66999.2725
45.3600	65217.4400
45.3700	63607.0375
45.3800	61149.1025
45.3900	59834.3200
45.4000	59154.2475
45.4100	58418.1825
45.4200	56668.7425
45.4300	56167.7975
45.4400	55577.7325
45.4500	54627.0325
45.4600	54749.0725
45.4700	53522.6825
45.4800	52622.4450
45.4900	51564.7675
45.5000	51038.7825
45.5100	51327.6025
45.5200	51708.6325
45.5300	50906.3675
45.5400	50281.0775
45.5500	50746.3875
45.5600	49783.3900
45.5700	48347.2425
45.5800	48427.7650
45.5900	48522.9425
45.6000	48593.9525
45.6100	48951.1175
45.6200	48534.7300
45.6300	47707.5675
45.6400	47083.2675
45.6500	47649.7025
45.6600	47973.6175
45.6700	47374.2475
45.6800	47048.6600
45.6900	47287.3375
45.7000	46364.2725
45.7100	45230.1900
45.7200	46159.5025
45.7300	45936.0100
45.7400	45696.7775
45.7500	45921.0700
45.7600	46539.7450
45.7700	46223.1625
45.7800	45996.6800
45.7900	46027.2050
45.8000	44939.7150
45.8100	45150.4950
45.8200	45018.3800
45.8300	45744.2325
45.8400	45251.6050
45.8500	44749.5300
45.8600	45053.8775
45.8700	45733.6350
45.8800	45555.6175
45.8900	45197.7825
45.9000	45739.8625
45.9100	46229.0275
45.9200	45892.5800
45.9300	45828.6825
45.9400	45013.4450
45.9500	44631.6175
45.9600	44833.3325
45.9700	45000.0175
45.9800	45645.6225
45.9900	45231.5300
46.0000	44414.9625
46.0100	44317.5250
46.0200	44622.1450
46.0300	44860.7325
46.0400	44342.4700
46.0500	44679.2750
46.0600	44859.1375
46.0700	45280.7425
46.0800	44776.0625
46.0900	44801.0425
46.1000	44839.3575
46.1100	45194.2025
46.1200	44727.1225
46.1300	44656.6225
46.1400	44349.1850
46.1500	43904.2875
46.1600	44275.1550
46.1700	44508.7600
46.1800	44577.7725
46.1900	45259.6225
46.2000	44755.8675
46.2100	44672.9200
46.2200	44692.0000
46.2300	43980.3025
46.2400	43782.1300
46.2500	43345.4350
46.2600	44940.5675
46.2700	43862.3025
46.2800	43011.3000
46.2900	43426.5100
46.3000	43855.2475
46.3100	44468.3625
46.3200	44031.5275
46.3300	44073.3075
46.3400	43911.5300
46.3500	43612.2775
46.3600	43029.3775
46.3700	42977.4250
46.3800	43312.3775
46.3900	43823.0275
46.4000	43371.6550
46.4100	43296.2750
46.4200	43237.7850
46.4300	43463.0675
46.4400	43521.3000
46.4500	42752.8875
46.4600	43046.0625
46.4700	44233.8950
46.4800	43602.6850
46.4900	43667.6550
46.5000	42077.5225
46.5100	42775.3875
46.5200	43847.7175
46.5300	43401.0250
46.5400	43508.5925
46.5500	42974.6775
46.5600	43831.6400
46.5700	44219.2900
46.5800	43970.6625
46.5900	43136.4500
46.6000	43363.7400
46.6100	43325.2500
46.6200	44061.0950
46.6300	44191.6900
46.6400	44044.9975
46.6500	43480.8300
46.6600	43184.4875
46.6700	42904.5650
46.6800	44302.1825
46.6900	43489.9200
46.7000	43194.2300
46.7100	43347.8475
46.7200	43749.6725
46.7300	43217.1025
46.7400	43273.6650
46.7500	44016.1525
46.7600	44148.3450
46.7700	44215.1225
46.7800	43241.9800
46.7900	43250.6650
46.8000	43492.7250
46.8100	43371.9750
46.8200	43497.9500
46.8300	43945.3625
46.8400	43571.9350
46.8500	43681.4725
46.8600	43933.1450
46.8700	42921.2300
46.8800	42844.9350
46.8900	43292.6925
46.9000	43433.3325
46.9100	43451.4625
46.9200	43658.5050
46.9300	44226.8050
46.9400	44071.7225
46.9500	44024.3725
46.9600	44447.8350
46.9700	43534.5275
46.9800	43618.0600
46.9900	43469.8575
47.0000	43040.6850
47.0100	42692.4575
47.0200	43156.9875
47.0300	43229.9975
47.0400	42401.7700
47.0500	42610.0050
47.0600	42651.6975
47.0700	42710.9975
47.0800	43389.3700
47.0900	42596.3775
47.1000	42788.8925
47.1100	42924.0575
47.1200	42885.5875
47.1300	42610.2700
47.1400	43867.7750
47.1500	44552.4750
47.1600	43854.4450
47.1700	43206.7250
47.1800	43663.9800
47.1900	42652.1875
47.2000	42751.9900
47.2100	43631.5500
47.2200	42407.5575
47.2300	43076.8650
47.2400	44385.6975
47.2500	43919.4550
47.2600	42861.7650
47.2700	43047.5125
47.2800	43083.8375
47.2900	42778.6325
47.3000	42871.9125
47.3100	43504.4300
47.3200	42893.6225
47.3300	43368.9925
47.3400	43408.8500
47.3500	43538.9050
47.3600	43445.1125
47.3700	43942.5375
47.3800	43800.3475
47.3900	42536.2675
47.4000	42491.0850
47.4100	42779.5925
47.4200	43059.7425
47.4300	43554.9125
47.4400	42893.5550
47.4500	42580.6175
47.4600	42818.2125
47.4700	42408.9575
47.4800	42573.8625
47.4900	43286.7100
47.5000	43427.7725
47.5100	43411.4075
47.5200	42773.7000
47.5300	42526.5000
47.5400	43407.3625
47.5500	43062.6625
47.5600	43421.2725
47.5700	43663.5375
47.5800	42910.1075
47.5900	43130.6925
47.6000	42742.2600
47.6100	43359.8375
47.6200	44108.5900
47.6300	44078.8650
47.6400	43461.9800
47.6500	43176.1300
47.6600	42210.2975
47.6700	42346.6300
47.6800	43547.4450
47.6900	43196.8500
47.7000	42506.4225
47.7100	42790.1525
47.7200	43583.2200
47.7300	43033.4325
47.7400	42296.4625
47.7500	41419.4075
47.7600	42903.6325
47.7700	43351.2050
47.7800	43695.9375
47.7900	42702.3550
47.8000	42628.5400
47.8100	42912.6050
47.8200	43367.8150
47.8300	42553.5400
47.8400	42814.8325
47.8500	43619.8700
47.8600	43303.8750
47.8700	42633.9425
47.8800	42799.7275
47.8900	42173.4100
47.9000	42111.8725
47.9100	42247.3450
47.9200	42403.3275
47.9300	41109.8000
47.9400	42398.1475
47.9500	42240.5175
47.9600	43059.7150
47.9700	43082.9725
47.9800	42634.3475
47.9900	42044.7825
48.0000	41495.2450
48.0100	42399.1550
48.0200	41692.7825
48.0300	41415.4125
48.0400	42675.3600
48.0500	42481.4450
48.0600	42391.3250
48.0700	41813.1425
48.0800	42057.0425
48.0900	43183.4575
48.1000	43366.8825
48.1100	43761.1050
48.1200	43653.8325
48.1300	43126.0525
48.1400	43039.8400
48.1500	43751.7350
48.1600	42495.2625
48.1700	42006.3525
48.1800	41544.8575
48.1900	40802.5925
48.2000	41907.6075
48.2100	42971.0325
48.2200	43183.1300
48.2300	42392.8050
48.2400	42657.5625
48.2500	41890.4200
48.2600	42050.6600
48.2700	42936.9625
48.2800	43146.4950
48.2900	42200.2250
48.3000	41727.4375
48.3100	42623.6500
48.3200	43372.3025
48.3300	43124.7075
48.3400	43096.4250
48.3500	43486.2900
48.3600	43320.5550
48.3700	42925.1775
48.3800	42864.3025
48.3900	41854.3025
48.4000	43427.3800
48.4100	42678.6625
48.4200	42998.0075
48.4300	42253.3400
48.4400	42441.6400
48.4500	42440.5025
48.4600	41867.1500
48.4700	42875.7850
48.4800	42346.7225
48.4900	42406.4675
48.5000	43200.7925
48.5100	42789.7550
48.5200	41795.7450
48.5300	42114.9600
48.5400	42624.4125
48.5500	43139.4950
48.5600	42872.1850
48.5700	42725.4075
48.5800	42287.4800
48.5900	41864.1800
48.6000	42076.9175
48.6100	42852.6400
48.6200	43129.8750
48.6300	42536.9475
48.6400	43261.1250
48.6500	42075.9150
48.6600	42192.7725
48.6700	42503.5450
48.6800	43050.1000
48.6900	43231.8525
48.7000	43362.1525
48.7100	43160.5500
48.7200	43194.5925
48.7300	42436.7500
48.7400	42257.0225
48.7500	43494.3975
48.7600	43237.0875
48.7700	43051.1950
48.7800	44218.2350
48.7900	43602.6300
48.8000	42438.5125
48.8100	42702.9350
48.8200	43164.2600
48.8300	43950.4500
48.8400	43291.5825
48.8500	43646.2075
48.8600	42765.0375
48.8700	43406.6175
48.8800	44662.7600
48.8900	43835.3300
48.9000	43103.9275
48.9100	42774.9650
48.9200	42636.1050
48.9300	42178.9250
48.9400	42898.3600
48.9500	43211.5725
48.9600	42829.8050
48.9700	43348.6400
48.9800	43228.9475
48.9900	42063.5000
49.0000	42345.7450
49.0100	43780.5125
49.0200	43350.6650
49.0300	43128.1575
49.0400	42736.2275
49.0500	43276.2575
49.0600	42432.4025
49.0700	42653.2275
49.0800	43165.2500
49.0900	44137.2175
49.1000	44099.5350
49.1100	43080.7450
49.1200	42823.1575
49.1300	42534.3625
49.1400	42986.7475
49.1500	43372.7725
49.1600	42606.9525
49.1700	42372.1350
49.1800	43500.2875
49.1900	43978.6550
49.2000	44748.7650
49.2100	44681.7250
49.2200	43956.2650
49.2300	42991.8575
49.2400	43140.0100
49.2500	43683.7950
49.2600	44114.2625
49.2700	44058.2175
49.2800	43764.2875
49.2900	44189.1850
49.3000	44492.7700
49.3100	44563.8250
49.3200	43824.5900
49.3300	43296.9150
49.3400	43694.2100
49.3500	43608.6000
49.3600	43518.3550
49.3700	43800.9175
49.3800	44263.2575
49.3900	44190.6550
49.4000	43892.9850
49.4100	44792.8325
49.4200	45777.5450
49.4300	44730.0600
49.4400	44231.0175
49.4500	44527.8075
49.4600	45824.0325
49.4700	45177.5075
49.4800	44698.9300
49.4900	45888.7175
49.5000	45977.3825
49.5100	46092.8125
49.5200	45459.6825
49.5300	44896.2225
49.5400	45398.4500
49.5500	46342.6325
49.5600	45984.3725
49.5700	46023.7875
49.5800	46383.3325
49.5900	46365.9325
49.6000	46123.4200
49.6100	46540.0575
49.6200	47374.3475
49.6300	46751.7475
49.6400	47424.6200
49.6500	49302.0175
49.6600	48058.0925
49.6700	48722.5525
49.6800	48721.0425
49.6900	47301.7300
49.7000	49285.1950
49.7100	50439.3550
49.7200	51063.2875
49.7300	50709.6000
49.7400	50345.9325
49.7500	50860.5575
49.7600	51373.6125
49.7700	52352.8275
49.7800	52691.6400
49.7900	52870.9600
49.8000	53491.1175
49.8100	53072.6800
49.8200	53564.0825
49.8300	55284.6025
49.8400	55654.3825
49.8500	56687.5700
49.8600	57955.2875
49.8700	58087.6600
49.8800	58871.1400
49.8900	60834.1675
49.9000	62030.5400
49.9100	61466.6975
49.9200	63365.1025
49.9300	64335.9200
49.9400	65736.5750
49.9500	67631.6150
49.9600	66743.6725
49.9700	68659.3725
49.9800	71153.7325
49.9900	72544.3225
50.0000	73156.8825
50.0100	74737.3225
50.0200	77594.4175
50.0300	80532.4625
50.0400	82045.3150
50.0500	86048.2725
50.0600	87510.4575
50.0700	90558.8650
50.0800	92967.1950
50.0900	96555.9850
50.1000	99251.3525
50.1100	102386.9525
50.1200	109075.6675
50.1300	114777.9050
50.1400	118828.9400
50.1500	124134.9550
50.1600	132154.9675
50.1700	140298.8625
50.1800	148389.5375
50.1900	157191.0075
50.2000	168823.3725
50.2100	183089.2875
50.2200	195899.9250
50.2300	208455.4725
50.2400	225135.1125
50.2500	243144.9125
50.2600	264282.8150
50.2700	286100.2900
50.2800	308514.7425
50.2900	331580.3025
50.3000	357740.7625
50.3100	377126.0700
50.3200	398912.8550
50.3300	414155.3875
50.3400	424749.8275
50.3500	425274.9200
50.3600	427767.9925
50.3700	420597.6225
50.3800	411029.9300
50.3900	399212.1425
50.4000	388100.4775
50.4100	375603.5550
50.4200	360504.9825
50.4300	348124.3800
50.4400	338617.4450
50.4500	333744.8100
50.4600	325064.0100
50.4700	319065.7775
50.4800	309629.7975
50.4900	296142.1200
50.5000	280055.1775
50.5100	265152.6875
50.5200	249523.0725
50.5300	232881.2825
50.5400	216329.2800
50.5500	199638.0025
50.5600	185193.5175
50.5700	173780.4775
50.5800	159907.0525
50.5900	149899.6250
50.6000	140643.7675
50.6100	132253.5325
50.6200	126137.1300
50.6300	116262.5000
50.6400	109983.7975
50.6500	107094.8300
50.6600	102801.9825
50.6700	96492.6350
50.6800	92184.5900
50.6900	90944.7750
50.7000	86580.8325
50.7100	84028.8900
50.7200	80781.1850
50.7300	77611.6275
50.7400	75483.6250
50.7500	71736.1000
50.7600	70545.4525
50.7700	69062.1350
50.7800	67558.0000
50.7900	65898.9950
50.8000	65174.8250
50.8100	64117.7225
50.8200	62113.5175
50.8300	61258.8975
50.8400	59530.6700
50.8500	58679.2600
50.8600	57067.1275
50.8700	56323.1425
50.8800	54428.0475
50.8900	54888.4100
50.9000	52847.3650
50.9100	51971.2500
50.9200	52157.5975
50.9300	50940.7400
50.9400	50510.4825
50.9500	50997.0025
50.9600	50037.6025
50.9700	50251.6175
50.9800	50280.7275
50.9900	47586.7875
51.0000	47796.9675
51.0100	49393.3025
51.0200	49027.9400
51.0300	48733.3325
51.0400	48720.8625
51.0500	48000.9800
51.0600	47089.9050
51.0700	46497.5200
51.0800	46353.2500
51.0900	46549.4675
51.1000	46516.6675
51.1100	46516.1525
51.1200	46479.3050
51.1300	46225.3125
51.1400	46798.3050
51.1500	46678.3450
51.1600	46314.4800
51.1700	44990.1725
51.1800	45463.9100
51.1900	44039.2325
51.2000	44488.2500
51.2100	44873.7750
51.2200	45440.6900
51.2300	46035.9275
51.2400	46240.8400
51.2500	45457.7300
51.2600	44672.9475
51.2700	43748.9150
51.2800	43654.9300
51.2900	44125.2325
51.3000	44941.3350
51.3100	44073.6175
51.3200	43089.1500
51.3300	43702.1350
51.3400	43938.6575
51.3500	44531.3300
51.3600	44287.8125
51.3700	42840.8275
51.3800	43775.7075
51.3900	44921.6325
51.4000	43372.2975
51.4100	44149.5400
51.4200	44076.2600
51.4300	43014.8675
51.4400	42734.6500
51.4500	42949.6150
51.4600	42885.2625
51.4700	43234.6425
51.4800	43481.9275
51.4900	43199.5325
51.5000	43097.1375
51.5100	42449.3125
51.5200	42287.1825
51.5300	43287.2625
51.5400	44379.8750
51.5500	43329.2100
51.5600	41965.2050
51.5700	41437.2375
51.5800	43018.1250
51.5900	43683.0150
51.6000	43515.9850
51.6100	43098.5250
51.6200	42017.6450
51.6300	42916.8025
51.6400	43082.9025
51.6500	42283.2975
51.6600	42150.0025
51.6700	41983.3800
51.6800	41483.6125
51.6900	41783.0825
51.7000	42582.4500
51.7100	42400.2525
51.7200	41834.2700
51.7300	40885.1625
51.7400	41548.5350
51.7500	41683.0050
51.7600	41866.1650
51.7700	41584.1875
51.7800	42480.3775
51.7900	42250.8300
51.8000	41137.6075
51.8100	42345.0125
51.8200	43826.8525
51.8300	42224.1675
51.8400	42083.9875
51.8500	41718.5650
51.8600	42429.4275
51.8700	41289.9125
51.8800	41266.7675
51.8900	42459.1550
51.9000	41340.7325
51.9100	41349.8875
51.9200	39992.9900
51.9300	40148.7775
51.9400	40976.9975
51.9500	41975.4625
51.9600	42214.7675
51.9700	42018.3475
51.9800	42281.0200
51.9900	41655.6625
52.0000	41402.3025
52.0100	41779.7025
52.0200	42096.9150
52.0300	42743.4950
52.0400	41875.7400
52.0500	42460.3425
52.0600	41906.1225
52.0700	41224.2300
52.0800	41233.1450
52.0900	41068.6000
52.1000	41610.1400
52.1100	41880.0975
52.1200	41718.7325
52.1300	41025.5275
52.1400	40852.1525
52.1500	40586.8500
52.1600	40616.2175
52.1700	41126.2475
52.1800	41149.7675
52.1900	40624.2600
52.2000	40780.9175
52.2100	40175.7725
52.2200	42054.5325
52.2300	42378.7475
52.2400	41185.5875
52.2500	42774.1725
52.2600	41586.4900
52.2700	41402.7225
52.2800	43006.2275
52.2900	42164.8900
52.3000	40528.2425
52.3100	40762.0325
52.3200	41618.0475
52.3300	40765.8100
52.3400	40455.4475
52.3500	41038.9500
52.3600	40248.5850
52.3700	40576.7050
52.3800	40779.4950
52.3900	39933.5250
52.4000	41125.6900
52.4100	41395.0075
52.4200	41922.5450
52.4300	41884.3575
52.4400	42046.5425
52.4500	40760.9850
52.4600	41239.0175
52.4700	41837.0900
52.4800	42045.6450
52.4900	40697.1400
52.5000	40845.9150
52.5100	41469.0575
52.5200	41825.3550
52.5300	41458.8375
52.5400	41450.0000
52.5500	40701.4000
52.5600	39609.5350
52.5700	39502.0050
52.5800	40524.4550
52.5900	41736.7575
52.6000	42189.2375
52.6100	42086.2600
52.6200	41254.8775
52.6300	39950.3725
52.6400	41150.5875
52.6500	40258.1325
52.6600	40379.3800
52.6700	40772.6875
52.6800	41691.5925
52.6900	41473.4450
52.7000	41320.7725
52.7100	41235.6350
52.7200	41362.9500
52.7300	40799.7400
52.7400	40605.2025
52.7500	40907.6025
52.7600	40803.3700
52.7700	41333.9800
52.7800	41139.6975
52.7900	41408.2725
52.8000	41077.1250
52.8100	39983.6450
52.8200	41000.4225
52.8300	40403.2425
52.8400	40528.7025
52.8500	41324.5800
52.8600	40397.5200
52.8700	41254.3450
52.8800	40783.1350
52.8900	39685.8675
52.9000	40133.8150
52.9100	40794.9225
52.9200	40623.2400
52.9300	40165.4525
52.9400	41164.9725
52.9500	41602.6650
52.9600	40908.1575
52.9700	41237.4975
52.9800	41298.2825
52.9900	41509.1725
53.0000	40905.3975
53.0100	41687.4300
53.0200	41845.2900
53.0300	40451.5825
53.0400	40110.7450
53.0500	40244.5900
53.0600	41615.2300
53.0700	41795.1250
53.0800	39648.8475
53.0900	40722.2175
53.1000	40734.5750
53.1100	40685.2100
53.1200	41405.0050
53.1300	41609.6975
53.1400	40943.4475
53.1500	41429.4650
53.1600	41081.5175
53.1700	40041.5850
53.1800	39807.8450
53.1900	40680.4850
53.2000	41580.9250
53.2100	42000.6850
53.2200	41360.8000
53.2300	40533.6975
53.2400	41699.1525
53.2500	41222.5050
53.2600	41215.9800
53.2700	41871.7100
53.2800	41692.3550
53.2900	42002.7075
53.3000	41537.7275
53.3100	40255.7725
53.3200	39705.3425
53.3300	40544.7800
53.3400	39769.9475
53.3500	40992.9675
53.3600	41831.0975
53.3700	41117.6375
53.3800	40621.2800
53.3900	40631.8575
53.4000	39741.5375
53.4100	40336.8375
53.4200	41035.1800
53.4300	40971.1875
53.4400	40632.5750
53.4500	40712.0975
53.4600	40446.3450
53.4700	40496.9225
53.4800	40595.3600
53.4900	40425.2175
53.5000	40559.6350
53.5100	41106.6400
53.5200	41038.0675
53.5300	39620.5725
53.5400	39581.7400
53.5500	40757.4100
53.5600	40689.7700
53.5700	41190.7925
53.5800	41026.4175
53.5900	41650.6775
53.6000	40875.1675
53.6100	39724.3575
53.6200	40316.0500
53.6300	39922.4625
53.6400	40564.8950
53.6500	40694.9625
53.6600	40162.0150
53.6700	40307.3450
53.6800	39921.2825
53.6900	39425.6550
53.7000	40332.6525
53.7100	40557.1750
53.7200	39413.2700
53.7300	39997.6400
53.7400	40838.7375
53.7500	41057.0050
53.7600	40245.8700
53.7700	38842.8575
53.7800	39634.3950
53.7900	40803.2200
53.8000	41623.5900
53.8100	41556.3075
53.8200	40746.1575
53.8300	40463.6325
53.8400	40465.7550
53.8500	40135.9125
53.8600	40888.2375
53.8700	40146.2050
53.8800	39596.3600
53.8900	40007.2450
53.9000	40867.0850
53.9100	40366.2075
53.9200	39845.9025
53.9300	40555.4975
53.9400	40222.8150
53.9500	40608.5200
53.9600	40083.5350
53.9700	39814.4300
53.9800	39737.1950
53.9900	39356.6000
54.0000	40212.1675
54.0100	40360.8050
54.0200	40413.7250
54.0300	40197.1150
54.0400	39979.5125
54.0500	40139.0875
54.0600	40479.0900
54.0700	40829.0125
54.0800	40051.1600
54.0900	40704.6900
54.1000	41438.8675
54.1100	41530.2900
54.1200	40531.8225
54.1300	40873.4350
54.1400	40712.3050
54.1500	39949.4000
54.1600	40025.0700
54.1700	41158.7000
54.1800	41420.8500
54.1900	40324.1225
54.2000	40390.5700
54.2100	40197.0000
54.2200	40355.0600
54.2300	40663.2175
54.2400	41073.4400
54.2500	41224.8050
54.2600	41248.9300
54.2700	40142.8800
54.2800	40659.0700
54.2900	40902.6175
54.3000	41384.1350
54.3100	41852.8675
54.3200	40092.2125
54.3300	39795.3825
54.3400	40655.1225
54.3500	40109.6700
54.3600	40331.1925
54.3700	39976.6375
54.3800	39965.5525
54.3900	40759.6925
54.4000	40443.5650
54.4100	41628.9625
54.4200	41266.0450
54.4300	40394.4425
54.4400	40348.8650
54.4500	40086.0275
54.4600	40454.7725
54.4700	41135.2000
54.4800	40205.7625
54.4900	39714.4700
54.5000	39760.8825
54.5100	39751.1600
54.5200	39377.9350
54.5300	40031.9600
54.5400	40687.6575
54.5500	40655.8725
54.5600	40014.9775
54.5700	40090.5450
54.5800	40038.0750
54.5900	40017.8550
54.6000	39583.3925
54.6100	40308.0575
54.6200	41047.2150
54.6300	40651.5600
54.6400	40230.1700
54.6500	40261.8250
54.6600	40622.0825
54.6700	40974.4350
54.6800	40490.2900
54.6900	39029.3125
54.7000	40352.4675
54.7100	40574.7125
54.7200	40212.9725
54.7300	40522.7525
54.7400	41460.0550
54.7500	40345.9050
54.7600	39972.4825
54.7700	40967.3325
54.7800	40895.8925
54.7900	40190.0125
54.8000	40811.0950
54.8100	40266.0600
54.8200	39908.7325
54.8300	40883.8925
54.8400	40766.6000
54.8500	41165.4275
54.8600	41523.0375
54.8700	40042.8275
54.8800	40439.4450
54.8900	40729.2925
54.9000	39766.3900
54.9100	39160.9075
54.9200	40314.9050
54.9300	40785.2725
54.9400	40847.3775
54.9500	40389.4500
54.9600	41731.3425
54.9700	41006.0350
54.9800	39583.2925
54.9900	39742.7500
55.0000	40564.0625
55.0100	41277.2400
55.0200	39923.1875
55.0300	40566.2125
55.0400	40526.0875
55.0500	40363.4925
55.0600	39630.2400
55.0700	40577.1675
55.0800	40620.7450
55.0900	40463.6275
55.1000	40863.1125
55.1100	41435.3975
55.1200	41452.7450
55.1300	40303.2275
55.1400	39695.5325
55.1500	40169.6400
55.1600	40476.4300
55.1700	41691.5900
55.1800	41127.9700
55.1900	40776.5350
55.2000	40246.2000
55.2100	40230.5275
55.2200	40004.4325
55.2300	40502.0600
55.2400	40351.7075
55.2500	39875.8350
55.2600	40001.0450
55.2700	39315.4775
55.2800	39432.8800
55.2900	40943.1875
55.3000	40580.6350
55.3100	40167.8150
55.3200	40422.6400
55.3300	39871.5150
55.3400	39527.4875
55.3500	39302.1825
55.3600	40439.5500
55.3700	39911.1775
55.3800	40306.2025
55.3900	38860.0600
55.4000	39507.0750
55.4100	40920.6600
55.4200	40457.4500
55.4300	39777.1975
55.4400	39428.1125
55.4500	39612.5725
55.4600	39390.4450
55.4700	40338.0075
55.4800	40736.8125
55.4900	40129.4975
55.5000	40703.6975
55.5100	40326.9075
55.5200	39373.6800
55.5300	39419.7525
55.5400	40100.1250
55.5500	39696.9825
55.5600	39604.5575
55.5700	40054.3400
55.5800	40130.2825
55.5900	39694.3250
55.6000	40437.0175
55.6100	40274.5600
55.6200	40885.3975
55.6300	40193.7350
55.6400	40252.7650
55.6500	40039.8850
55.6600	40182.9375
55.6700	39625.7275
55.6800	40412.7825
55.6900	40620.8475
55.7000	39968.8100
55.7100	39703.7050
55.7200	40423.0575
55.7300	40017.0150
55.7400	40193.0175
55.7500	39462.3225
55.7600	39669.9225
55.7700	39157.1000
55.7800	39657.8625
55.7900	39249.3675
55.8000	40616.6750
55.8100	40465.3100
55.8200	40523.7225
55.8300	39810.3800
55.8400	40154.9675
55.8500	41600.1375
55.8600	40350.1550
55.8700	39342.2100
55.8800	40393.4800
55.8900	39975.1300
55.9000	39585.7975
55.9100	41068.6775
55.9200	40677.1025
55.9300	39835.1000
55.9400	40576.4875
55.9500	40426.2850
55.9600	41045.8950
55.9700	39705.0050
55.9800	39595.0425
55.9900	39825.1725
56.0000	39729.9325
56.0100	39446.5725
56.0200	40466.8175
56.0300	40283.3525
56.0400	39620.1675
56.0500	40194.6950
56.0600	40701.3725
56.0700	40764.9875
56.0800	39747.7775
56.0900	40442.2850
56.1000	40158.8950
56.1100	39817.1775
56.1200	39933.0475
56.1300	41132.4975
56.1400	41281.6325
56.1500	40295.8275
56.1600	39599.9250
56.1700	39892.2800
56.1800	40546.4100
56.1900	40153.2150
56.2000	40354.0975
56.2100	39964.9025
56.2200	39767.2575
56.2300	38749.1625
56.2400	39185.9225
56.2500	40280.2975
56.2600	39967.0650
56.2700	39558.4475
56.2800	38994.3700
56.2900	39455.5250
56.3000	39486.8325
56.3100	40363.2450
56.3200	40705.2400
56.3300	41195.4750
56.3400	40892.2850
56.3500	39985.6975
56.3600	40687.8675
56.3700	40768.4375
56.3800	39709.2775
56.3900	39240.8675
56.4000	40852.4400
56.4100	40782.0900
56.4200	40020.8350
56.4300	40781.3750
56.4400	40972.5825
56.4500	40804.8700
56.4600	41541.6550
56.4700	40979.2250
56.4800	40186.5700
56.4900	39371.8500
56.5000	40278.7675
56.5100	40518.8350
56.5200	40280.8600
56.5300	39299.7025
56.5400	39940.4525
56.5500	40419.2400
56.5600	39798.8850
56.5700	40043.0750
56.5800	40943.6925
56.5900	40649.5675
56.6000	40451.7200
56.6100	39884.8075
56.6200	39520.2250
56.6300	40431.7625
56.6400	39172.0850
56.6500	40036.9375
56.6600	41721.7675
56.6700	40643.2150
56.6800	40646.1850
56.6900	40785.0800
56.7000	40163.6475
56.7100	39136.3875
56.7200	39179.3900
56.7300	40664.2350
56.7400	41175.3225
56.7500	39516.4475
56.7600	40246.0250
56.7700	40795.2500
56.7800	39948.6700
56.7900	40291.2975
56.8000	41103.2800
56.8100	40830.8175
56.8200	39616.9400
56.8300	39156.6725
56.8400	39588.9475
56.8500	39989.3850
56.8600	40284.1350
56.8700	40773.9250
56.8800	40582.6275
56.8900	40741.6800
56.9000	39867.4200
56.9100	39941.6050
56.9200	39951.9300
56.9300	39994.2000
56.9400	40368.2600
56.9500	40357.7550
56.9600	40732.8450
56.9700	39973.6250
56.9800	39999.1400
56.9900	39486.8775
57.0000	40122.9175
57.0100	39275.1775
57.0200	39473.5750
57.0300	40148.9875
57.0400	39512.9175
57.0500	39901.7525
57.0600	40598.6275
57.0700	39801.6925
57.0800	39507.0375
57.0900	38866.4200
57.1000	39091.7325
57.1100	40073.0375
57.1200	40155.9600
57.1300	39915.1625
57.1400	40426.2925
57.1500	39707.7225
57.1600	40201.4300
57.1700	40048.6725
57.1800	40104.6475
57.1900	39955.3975
57.2000	39596.1975
57.2100	39300.8600
57.2200	40263.0400
57.2300	40238.8525
57.2400	39850.4900
57.2500	39902.5100
57.2600	39784.8925
57.2700	40293.6650
57.2800	40937.4750
57.2900	41675.1700
57.3000	40552.3200
57.3100	41465.8025
57.3200	40534.4000
57.3300	40792.7625
57.3400	39695.0350
57.3500	40483.4450
57.3600	39959.0200
57.3700	39983.5600
57.3800	39751.6475
57.3900	40286.3100
57.4000	40337.4600
57.4100	39720.0975
57.4200	39297.5750
57.4300	40826.3125
57.4400	40334.9525
57.4500	39956.1200
57.4600	40543.9250
57.4700	39962.4350
57.4800	40522.8600
57.4900	40441.7150
57.5000	39498.3325
57.5100	40969.8125
57.5200	40019.7175
57.5300	39704.3125
57.5400	39756.1625
57.5500	40043.3700
57.5600	39559.1475
57.5700	39905.5175
57.5800	40315.9975
57.5900	40075.6125
57.6000	39975.1325
57.6100	40359.4475
57.6200	40125.7700
57.6300	39952.4525
57.6400	39773.3975
57.6500	39968.0525
57.6600	40247.0825
57.6700	39614.8775
57.6800	40272.1750
57.6900	40165.4375
57.7000	39465.2400
57.7100	39439.2725
57.7200	38854.7400
57.7300	38621.5075
57.7400	38846.7250
57.7500	39753.9725
57.7600	40188.0025
57.7700	40479.9250
57.7800	39428.9525
57.7900	39962.6775
57.8000	40197.1450
57.8100	40506.5675
57.8200	40289.1350
57.8300	39554.4875
57.8400	39174.7425
57.8500	39785.1425
57.8600	40158.4925
57.8700	38925.8050
57.8800	38559.6100
57.8900	39792.6000
57.9000	40533.2600
57.9100	40616.6675
57.9200	40703.4675
57.9300	40181.4975
57.9400	39752.9250
57.9500	39960.2600
57.9600	38857.9500
57.9700	39550.5600
57.9800	39466.5650
57.9900	39144.3600
58.0000	39172.2300
58.0100	39544.4225
58.0200	39441.1500
58.0300	40051.9600
58.0400	40770.7450
58.0500	40823.3675
58.0600	40614.6350
58.0700	39515.6400
58.0800	38542.1575
58.0900	39152.2500
58.1000	40362.6375
58.1100	40244.9700
58.1200	40027.0125
58.1300	39351.4100
58.1400	38587.1125
58.1500	39621.5700
58.1600	39454.2675
58.1700	40365.0025
58.1800	40732.6750
58.1900	39456.4500
58.2000	39998.5650
58.2100	40548.4550
58.2200	41120.3325
58.2300	40811.5250
58.2400	40591.7600
58.2500	39559.8600
58.2600	39529.4250
58.2700	41074.0650
58.2800	40439.7625
58.2900	39178.9075
58.3000	39531.7075
58.3100	39573.5625
58.3200	38905.8525
58.3300	39460.7000
58.3400	38776.8375
58.3500	40114.5225
58.3600	40608.4000
58.3700	40721.7650
58.3800	40647.2300
58.3900	40116.8000
58.4000	39689.0375
58.4100	39819.7950
58.4200	39735.2750
58.4300	40576.9650
58.4400	40745.3375
58.4500	40291.3325
58.4600	40660.9250
58.4700	40088.5525
58.4800	39854.4000
58.4900	40205.7475
58.5000	40051.8500
58.5100	40073.9425
58.5200	39381.8375
58.5300	39896.4750
58.5400	40457.9625
58.5500	40304.3900
58.5600	40123.6025
58.5700	40271.6475
58.5800	40543.1275
58.5900	40855.0175
58.6000	40313.8325
58.6100	39544.8325
58.6200	39547.6675
58.6300	40038.2200
58.6400	41002.4650
58.6500	40650.0375
58.6600	39938.2475
58.6700	39604.8575
58.6800	40066.3750
58.6900	40164.2750
58.7000	39866.9425
58.7100	40002.1800
58.7200	39747.9775
58.7300	39257.7725
58.7400	39268.9100
58.7500	40110.4450
58.7600	40349.8075
58.7700	39582.6000
58.7800	39663.8000
58.7900	40241.5375
58.8000	40319.0850
58.8100	39704.0800
58.8200	39543.0250
58.8300	39148.8150
58.8400	38855.5075
58.8500	39258.0025
58.8600	39077.1150
58.8700	40058.0325
58.8800	40418.3175
58.8900	40563.8175
58.9000	40526.4350
58.9100	40118.4375
58.9200	39282.1175
58.9300	39107.3475
58.9400	40905.3475
58.9500	39425.8325
58.9600	38775.6125
58.9700	39611.7875
58.9800	39667.2250
58.9900	39522.1675
59.0000	39059.7625
59.0100	39025.9300
59.0200	39175.2975
59.0300	39185.8050
59.0400	40020.6475
59.0500	39939.6350
59.0600	40651.9150
59.0700	41180.5075
59.0800	41164.9050
59.0900	40412.6350
59.1000	39602.8025
59.1100	40348.0325
59.1200	40896.8450
59.1300	40343.1550
59.1400	40049.1450
59.1500	40271.6550
59.1600	40670.7600
59.1700	40124.3925
59.1800	39521.0975
59.1900	39277.6075
59.2000	39235.8450
59.2100	38752.1600
59.2200	40293.8975
59.2300	40555.0375
59.2400	38852.5750
59.2500	39356.1450
59.2600	39726.2500
59.2700	39498.0400
59.2800	40001.3025
59.2900	39647.7225
59.3000	38817.7050
59.3100	39276.7550
59.3200	40654.7425
59.3300	40501.9725
59.3400	39105.8475
59.3500	39516.1825
59.3600	40593.3300
59.3700	40060.9025
59.3800	40328.4975
59.3900	40724.5475
59.4000	40430.6225
59.4100	39365.1300
59.4200	40692.4475
59.4300	40769.2450
59.4400	40761.5325
59.4500	40273.2700
59.4600	40761.2175
59.4700	39908.3775
59.4800	39719.2425
59.4900	39913.8975
59.5000	40273.9700
59.5100	39882.6650
59.5200	39743.6750
59.5300	40648.4575
59.5400	41351.5775
59.5500	40492.9450
59.5600	40795.1175
59.5700	41024.0325
59.5800	41246.9450
59.5900	40453.4825
59.6000	40117.1800
59.6100	40013.0300
59.6200	39789.1225
59.6300	39750.0000
59.6400	40424.5925
59.6500	39566.3775
59.6600	39804.8200
59.6700	39883.3325
59.6800	39349.6225
59.6900	40499.8075
59.7000	40522.7250
59.7100	39247.9625
59.7200	39086.8475
59.7300	39759.5900
59.7400	39967.5225
59.7500	40488.3900
59.7600	40372.9275
59.7700	40193.0850
59.7800	40320.9150
59.7900	40728.5525
59.8000	39986.9450
59.8100	39146.5500
59.8200	39913.5475
59.8300	40013.2750
59.8400	39411.6100
59.8500	39594.1500
59.8600	39930.0975
59.8700	39381.2200
59.8800	39420.6725
59.8900	40121.9150
59.9000	40487.9325
59.9100	40141.5075
59.9200	39646.9200
59.9300	38741.2925
59.9400	39912.1150
59.9500	40572.2300
59.9600	40538.1375
59.9700	40642.4925
59.9800	39883.8800
59.9900	39984.9050
60.0000	39404.5050
60.0100	39255.3900
60.0200	39948.4775
60.0300	39999.5300
60.0400	39913.5075
60.0500	40179.2600
60.0600	39940.1575
60.0700	40148.5450
60.0800	38832.2750
60.0900	39278.3300
60.1000	39179.4825
60.1100	38393.9925
60.1200	39575.0250
60.1300	40223.8050
60.1400	40327.8875
60.1500	40514.5675
60.1600	40996.0450
60.1700	40275.0025
60.1800	40548.6375
60.1900	40619.4000
60.2000	40170.9000
60.2100	39512.2850
60.2200	39400.0000
60.2300	40249.3450
60.2400	40667.2525
60.2500	39561.3625
60.2600	39959.6050
60.2700	40375.5475
60.2800	39779.4300
60.2900	39705.6425
60.3000	38951.7000
60.3100	38897.3450
60.3200	39458.9300
60.3300	40164.4525
60.3400	40227.7350
60.3500	39938.7125
60.3600	39591.5275
60.3700	40519.7625
60.3800	40188.8000
60.3900	39666.6600
60.4000	40194.3575
60.4100	40441.6300
60.4200	40549.9625
60.4300	39733.8375
60.4400	40246.7050
60.4500	40938.3800
60.4600	40120.4400
60.4700	39933.3325
60.4800	39544.9800
60.4900	40562.2050
60.5000	39979.1375
60.5100	39955.3000
60.5200	41133.8100
60.5300	40008.4825
60.5400	39483.9100
60.5500	38477.3550
60.5600	38712.7650
60.5700	39381.7200
60.5800	40413.9900
60.5900	40613.8450
60.6000	40381.3175
60.6100	41385.3225
60.6200	40589.6925
60.6300	39525.3975
60.6400	39806.5725
60.6500	39623.3325
60.6600	39677.3175
60.6700	40087.2175
60.6800	39986.9150
60.6900	39327.8775
60.7000	40361.1175
60.7100	40074.8125
60.7200	39261.9200
60.7300	39531.1600
60.7400	40763.2575
60.7500	40461.3225
60.7600	40225.7100
60.7700	40862.7825
60.7800	40088.8125
60.7900	40217.4875
60.8000	39814.0775
60.8100	39896.0600
60.8200	39988.5225
60.8300	39793.0700
60.8400	39253.4450
60.8500	39136.2100
60.8600	39353.9575
60.8700	39510.2950
60.8800	39616.0425
60.8900	39178.5050
60.9000	38656.1350
60.9100	39710.2775
60.9200	39660.6975
60.9300	39751.5175
60.9400	39576.7500
60.9500	39436.9425
60.9600	40132.6000
60.9700	39980.4850
60.9800	40178.1775
60.9900	40467.2825
61.0000	39732.3725
61.0100	40020.6625
61.0200	40969.5000
61.0300	40146.0100
61.0400	39685.8125
61.0500	40238.2925
61.0600	40242.9425
61.0700	40051.7275
61.0800	39920.4675
61.0900	39748.8525
61.1000	39716.6675
61.1100	40224.9200
61.1200	39275.7800
61.1300	39613.0275
61.1400	39733.3325
61.1500	39335.2150
61.1600	39551.9750
61.1700	39671.5625
61.1800	39697.0550
61.1900	40111.5975
61.2000	39953.0800
61.2100	40695.5125
61.2200	40496.3975
61.2300	39895.6275
61.2400	40400.2600
61.2500	40738.9450
61.2600	40892.9750
61.2700	40683.7125
61.2800	40414.1150
61.2900	40106.3825
61.3000	40543.0925
61.3100	40704.7800
61.3200	40018.3300
61.3300	41180.9850
61.3400	39960.9050
61.3500	39811.2600
61.3600	40055.2700
61.3700	40154.7300
61.3800	40508.6775
61.3900	40419.1925
61.4000	39849.9575
61.4100	39678.6375
61.4200	40063.1600
61.4300	39657.8750
61.4400	38989.6100
61.4500	39221.9825
61.4600	39559.6150
61.4700	38892.5875
61.4800	39266.0650
61.4900	39697.4625
61.5000	40312.8950
61.5100	39928.1500
61.5200	39598.2425
61.5300	40082.3300
61.5400	39558.5700
61.5500	39648.6375
61.5600	39672.7125
61.5700	38943.6800
61.5800	39547.1300
61.5900	39498.4725
61.6000	40022.6750
61.6100	40477.1925
61.6200	40577.2625
61.6300	40310.7550
61.6400	39568.6575
61.6500	39116.9200
61.6600	39485.9275
61.6700	40768.3350
61.6800	40515.8250
61.6900	40154.9000
61.7000	40263.3750
61.7100	40177.4875
61.7200	38843.3975
61.7300	39121.5525
61.7400	39957.5300
61.7500	39463.6600
61.7600	39126.2350
61.7700	39872.1450
61.7800	40389.9550
61.7900	40711.3975
61.8000	39624.7650
61.8100	40209.3725
61.8200	40440.7700
61.8300	39960.8350
61.8400	39496.7675
61.8500	39701.9275
61.8600	39508.6125
61.8700	39694.4350
61.8800	39695.6900
61.8900	39438.9725
61.9000	39641.2325
61.9100	39632.1425
61.9200	39589.5275
61.9300	39434.0900
61.9400	39644.1775
61.9500	40391.7325
61.9600	39370.1625
61.9700	39194.9150
61.9800	40301.2500
61.9900	41037.9875
62.0000	40160.6150
62.0100	39743.6175
62.0200	40214.8675
62.0300	40224.9575
62.0400	40186.4550
62.0500	39749.9575
62.0600	39365.6400
62.0700	40261.2650
62.0800	40889.4400
62.0900	40712.6350
62.1000	40135.7525
62.1100	39718.9900
62.1200	38757.1025
62.1300	39672.7175
62.1400	40690.7150
62.1500	40690.8725
62.1600	40636.4800
62.1700	40903.7050
62.1800	41223.4800
62.1900	40256.2300
62.2000	39800.4675
62.2100	39871.5950
62.2200	40183.6775
62.2300	39480.1375
62.2400	39732.1375
62.2500	39927.8500
62.2600	39936.5000
62.2700	40689.2350
62.2800	41109.5975
62.2900	40451.4750
62.3000	40283.3325
62.3100	40242.8625
62.3200	39140.8000
62.3300	39989.1875
62.3400	39683.6725
62.3500	39644.3750
62.3600	40192.3850
62.3700	40626.6575
62.3800	40160.9650
62.3900	40181.5450
62.4000	40459.1600
62.4100	40449.3175
62.4200	39840.7525
62.4300	39794.2600
62.4400	39507.0025
62.4500	40200.6475
62.4600	40840.9600
62.4700	41124.9500
62.4800	40345.8750
62.4900	40015.4650
62.5000	39378.0150
62.5100	38977.7925
62.5200	39831.0950
62.5300	41031.5175
62.5400	40097.0900
62.5500	39359.6600
62.5600	39639.7400
62.5700	40566.4475
62.5800	40390.4775
62.5900	40608.9650
62.6000	39581.9725
62.6100	40471.5775
62.6200	40105.4950
62.6300	40956.8850
62.6400	41562.4250
62.6500	40361.5750
62.6600	40063.4200
62.6700	40294.7550
62.6800	40256.0950
62.6900	39428.5550
62.7000	39193.1000
62.7100	39545.3750
62.7200	40035.5400
62.7300	39396.0675
62.7400	39417.7100
62.7500	40002.6975
62.7600	39825.1625
62.7700	38986.3875
62.7800	38679.4475
62.7900	39185.7075
62.8000	39798.7300
62.8100	40304.9375
62.8200	40707.8925
62.8300	41131.3325
62.8400	39985.4750
62.8500	39442.4850
62.8600	40319.8250
62.8700	40282.4725
62.8800	40497.5300
62.8900	39804.4425
62.9000	39335.8900
62.9100	39948.4500
62.9200	40424.0900
62.9300	40125.8000
62.9400	40180.3175
62.9500	39855.9425
62.9600	39593.0100
62.9700	39523.2875
62.9800	40037.4775
62.9900	40433.7075
63.0000	40847.1000
63.0100	40025.6700
63.0200	40400.5675
63.0300	40363.1850
63.0400	40530.1375
63.0500	40529.9750
63.0600	40383.2875
63.0700	39589.8600
63.0800	39880.0150
63.0900	40239.9725
63.1000	40486.6150
63.1100	40320.0900
63.1200	40293.3175
63.1300	39473.9375
63.1400	38973.5925
63.1500	39419.4625
63.1600	38870.8075
63.1700	39192.6725
63.1800	39662.8150
63.1900	39696.7550
63.2000	39590.1675
63.2100	39566.6675
63.2200	39300.5600
63.2300	40310.8975
63.2400	40277.4050
63.2500	39149.3650
63.2600	39375.3275
63.2700	39566.4750
63.2800	39330.7650
63.2900	38828.0625
63.3000	40351.2125
63.3100	40819.8150
63.3200	39903.3900
63.3300	40091.7175
63.3400	40505.4600
63.3500	40463.8250
63.3600	39835.8800
63.3700	39351.4650
63.3800	39306.4850
63.3900	39542.2675
63.4000	39825.5650
63.4100	40294.5950
63.4200	40413.2650
63.4300	40257.5175
63.4400	40137.1050
63.4500	39559.8150
63.4600	39668.5375
63.4700	39083.8750
63.4800	38704.6300
63.4900	38822.2525
63.5000	39767.5400
63.5100	40211.9375
63.5200	40094.4950
63.5300	40129.4525
63.5400	39951.4000
63.5500	39066.0125
63.5600	38439.6875
63.5700	38770.0500
63.5800	39386.1400
63.5900	39873.8675
63.6000	40614.8225
63.6100	40465.9200
63.6200	39537.0250
63.6300	40109.9575
63.6400	40409.2025
63.6500	41001.6800
63.6600	40608.1700
63.6700	40625.2250
63.6800	39226.6425
63.6900	39761.4325
63.7000	39167.9500
63.7100	39346.1525
63.7200	39436.7975
63.7300	39142.9125
63.7400	39898.1975
63.7500	39945.1075
63.7600	39438.1825
63.7700	39092.3900
63.7800	39785.2000
63.7900	40220.7275
63.8000	39914.1100
63.8100	40541.8125
63.8200	40403.7725
63.8300	39947.6175
63.8400	40245.3500
63.8500	39638.4825
63.8600	39252.3875
63.8700	40187.9075
63.8800	40739.7400
63.8900	40039.7550
63.9000	39833.3325
63.9100	39675.3675
63.9200	40054.5100
63.9300	40179.8275
63.9400	40893.8450
63.9500	40188.7550
63.9600	40028.9200
63.9700	39734.3650
63.9800	38782.1425
63.9900	38944.4175
64.0000	39759.8425
64.0100	40291.7225
64.0200	40357.0500
64.0300	39167.4900
64.0400	38981.3700
64.0500	39909.8375
64.0600	40649.0450
64.0700	40494.4575
64.0800	41256.8975
64.0900	40866.3850
64.1000	40070.0250
64.1100	40188.6925
64.1200	40214.1850
64.1300	40541.0725
64.1400	40095.5725
64.1500	39543.4650
64.1600	39682.4600
64.1700	39881.1000
64.1800	39929.7750
64.1900	39435.3150
64.2000	39313.1025
64.2100	39709.7125
64.2200	39855.9650
64.2300	39788.0825
64.2400	39976.1900
64.2500	41054.6025
64.2600	40574.0500
64.2700	40811.6925
64.2800	40004.1625
64.2900	40116.3750
64.3000	39706.4400
64.3100	39658.2300
64.3200	40324.1825
64.3300	39937.7125
64.3400	40031.7450
64.3500	40570.6000
64.3600	39628.2475
64.3700	38849.8150
64.3800	38925.7225
64.3900	39976.1850
64.4000	39818.9625
64.4100	39242.9125
64.4200	40187.3850
64.4300	40770.5525
64.4400	40132.0675
64.4500	38745.6725
64.4600	38729.8450
64.4700	38725.3375
64.4800	39756.6375
64.4900	39841.3150
64.5000	39652.9275
64.5100	39720.9750
64.5200	40362.7125
64.5300	40702.7800
64.5400	39785.6150
64.5500	39594.8475
64.5600	40333.2075
64.5700	40976.2125
64.5800	40019.0275
64.5900	39807.8175
64.6000	40510.3500
64.6100	40400.6000
64.6200	40212.5450
64.6300	40118.2675
64.6400	39241.2700
64.6500	38609.7325
64.6600	39345.4425
64.6700	40337.6050
64.6800	40719.0325
64.6900	39726.6350
64.7000	39290.3525
64.7100	39795.8375
64.7200	40248.8625
64.7300	41060.8800
64.7400	40773.0550
64.7500	40269.6800
64.7600	39893.9725
64.7700	40050.3675
64.7800	40064.7425
64.7900	39985.1050
64.8000	39940.7125
64.8100	39803.5850
64.8200	40000.1750
64.8300	40118.5475
64.8400	40133.3325
64.8500	40029.6025
64.8600	40427.8150
64.8700	40524.0750
64.8800	39544.6825
64.8900	39603.5650
64.9000	40049.7975
64.9100	39968.6525
64.9200	40628.9825
64.9300	40664.9950
64.9400	40500.1450
64.9500	40414.8875
64.9600	39947.0100
64.9700	40502.5075
64.9800	40557.6800
64.9900	40878.8775
65.0000	40879.8625
65.0100	40707.7500
65.0200	39968.4675
65.0300	39883.0125
65.0400	39968.3675
65.0500	39479.3325
65.0600	39617.5950
65.0700	40255.5075
65.0800	40584.5825
65.0900	39948.8675
65.1000	39130.2125
65.1100	39285.6625
65.1200	39654.4000
65.1300	39642.9925
65.1400	39939.2550
65.1500	40691.3025
65.1600	40496.3575
65.1700	40447.8175
65.1800	39809.0300
65.1900	40325.7625
65.2000	40314.1950
65.2100	40765.5300
65.2200	41277.4775
65.2300	40880.8600
65.2400	40720.4525
65.2500	41309.1250
65.2600	41109.8900
65.2700	40768.2475
65.2800	41099.0625
65.2900	40791.9325
65.3000	40061.8450
65.3100	41054.1725
65.3200	41425.7275
65.3300	41291.8525
65.3400	41211.4200
65.3500	41932.8800
65.3600	41751.4850
65.3700	42006.0750
65.3800	42180.9225
65.3900	41686.0500
65.4000	41700.3375
65.4100	41981.1975
65.4200	42460.9475
65.4300	42673.2125
65.4400	42443.2475
65.4500	42045.7800
65.4600	43092.1575
65.4700	43151.0500
65.4800	42643.3175
65.4900	42401.2275
65.5000	42597.5050
65.5100	43500.1050
65.5200	44121.7775
65.5300	44963.9400
65.5400	43478.8800
65.5500	41967.2375
65.5600	41922.8850
65.5700	43460.1950
65.5800	44258.5825
65.5900	44417.8825
65.6000	44919.8100
65.6100	44183.4800
65.6200	43865.4775
65.6300	44771.2625
65.6400	44768.5525
65.6500	45041.4775
65.6600	46160.2975
65.6700	46645.6750
65.6800	46955.6825
65.6900	47889.7150
65.7000	48443.9300
65.7100	50015.5025
65.7200	50607.1925
65.7300	51352.5050
65.7400	51745.4550
65.7500	53102.3675
65.7600	54597.8800
65.7700	55724.6875
65.7800	57281.1025
65.7900	58436.1300
65.8000	59763.7675
65.8100	61566.7925
65.8200	63024.1100
65.8300	65743.1150
65.8400	69173.1400
65.8500	71198.0875
65.8600	71974.4550
65.8700	73284.9200
65.8800	75242.3500
65.8900	76701.3075
65.9000	77636.7125
65.9100	76776.5825
65.9200	75928.0850
65.9300	75321.2075
65.9400	72523.7900
65.9500	69867.9175
65.9600	67633.6150
65.9700	65145.3450
65.9800	63160.0150
65.9900	61487.3975
66.0000	60108.5175
66.0100	58402.0075
66.0200	57344.0375
66.0300	56438.5525
66.0400	54641.6050
66.0500	53184.8150
66.0600	51486.6075
66.0700	50135.9475
66.0800	50002.3150
66.0900	49085.5175
66.1000	48770.6450
66.1100	48728.6100
66.1200	48057.1175
66.1300	46772.0900
66.1400	45989.5700
66.1500	45482.3775
66.1600	45556.7825
66.1700	46123.5475
66.1800	45801.8850
66.1900	45409.3200
66.2000	45257.3425
66.2100	44296.2950
66.2200	44215.2250
66.2300	43890.9350
66.2400	44184.3050
66.2500	43747.2675
66.2600	43554.0150
66.2700	44093.8925
66.2800	43697.5825
66.2900	43504.0225
66.3000	43550.5675
66.3100	42947.3425
66.3200	42926.9175
66.3300	42187.3575
66.3400	41592.2650
66.3500	41167.5875
66.3600	41533.8825
66.3700	42478.7150
66.3800	42518.7475
66.3900	42260.6950
66.4000	42591.1600
66.4100	42502.2000
66.4200	41600.8550
66.4300	40904.5625
66.4400	41787.9600
66.4500	42066.2425
66.4600	41419.8100
66.4700	40826.0225
66.4800	40296.8300
66.4900	40078.4900
66.5000	41158.2950
66.5100	41466.3000
66.5200	41084.9050
66.5300	41570.8475
66.5400	41892.5150
66.5500	41216.1425
66.5600	41574.5900
66.5700	41175.5225
66.5800	40065.3500
66.5900	40596.4675
66.6000	41947.7150
66.6100	41445.3825
66.6200	41154.1000
66.6300	40609.7875
66.6400	40898.0775
66.6500	41564.8900
66.6600	41909.1150
66.6700	41615.1700
66.6800	41776.1225
66.6900	41427.4650
66.7000	41659.7175
66.7100	41369.3900
66.7200	40267.6500
66.7300	40890.4175
66.7400	42065.0175
66.7500	42061.7175
66.7600	42079.4500
66.7700	41941.2575
66.7800	41432.3700
66.7900	41345.9550
66.8000	42431.0225
66.8100	42295.0775
66.8200	42408.7075
66.8300	41461.2950
66.8400	41266.8125
66.8500	41016.4350
66.8600	40528.9450
66.8700	40950.2075
66.8800	42258.5350
66.8900	42270.8400
66.9000	41425.1550
66.9100	41383.2500
66.9200	41025.2600
66.9300	40783.4150
66.9400	41261.9850
66.9500	41208.6050
66.9600	41008.5075
66.9700	39893.3850
66.9800	40269.5075
66.9900	41452.2950
67.0000	42153.3175
67.0100	42495.3250
67.0200	41644.0650
67.0300	41358.2625
67.0400	41541.1425
67.0500	41388.1775
67.0600	40369.8875
67.0700	40510.8400
67.0800	41002.8875
67.0900	41739.1725
67.1000	41676.1525
67.1100	41160.2000
67.1200	40183.0125
67.1300	39688.5175
67.1400	40711.1750
67.1500	41543.4300
67.1600	41003.7775
67.1700	41114.7075
67.1800	41767.7150
67.1900	40744.7775
67.2000	40668.7400
67.2100	41304.9700
67.2200	41508.1675
67.2300	41491.8375
67.2400	41892.9400
67.2500	41958.8750
67.2600	41288.1550
67.2700	41277.5475
67.2800	41585.6400
67.2900	41455.8725
67.3000	40701.4950
67.3100	40541.0350
67.3200	40864.0750
67.3300	40904.7200
67.3400	41044.3625
67.3500	40815.1600
67.3600	41187.1725
67.3700	41647.1000
67.3800	41217.8050
67.3900	40860.0975
67.4000	41331.9725
67.4100	41059.0175
67.4200	40541.3775
67.4300	41492.3125
67.4400	41236.2475
67.4500	41412.1400
67.4600	41760.0525
67.4700	40462.1050
67.4800	40712.0325
67.4900	40855.5325
67.5000	40273.4600
67.5100	40083.3325
67.5200	40836.1000
67.5300	40766.8775
67.5400	40662.3350
67.5500	40900.9875
67.5600	41303.9150
67.5700	40677.0225
67.5800	40515.2650
67.5900	41104.4975
67.6000	42260.9250
67.6100	42513.7825
67.6200	41227.2725
67.6300	40869.5150
67.6400	40703.0550
67.6500	39981.0925
67.6600	40192.9375
67.6700	41494.0100
67.6800	41112.8950
67.6900	41005.4750
67.7000	40562.6425
67.7100	40530.8200
67.7200	40632.4850
67.7300	40539.4325
67.7400	41236.9600
67.7500	41426.3200
67.7600	41105.3425
67.7700	41012.2750
67.7800	40893.9475
67.7900	40862.2700
67.8000	40547.7325
67.8100	40703.1425
67.8200	41511.1600
67.8300	41472.4575
67.8400	41035.7550
67.8500	40671.6000
67.8600	40571.0825
67.8700	40995.3450
67.8800	41382.6600
67.8900	41062.6600
67.9000	40427.0700
67.9100	41131.0775
67.9200	41511.1725
67.9300	40958.4375
67.9400	40456.5025
67.9500	41291.4325
67.9600	41987.8200
67.9700	41065.6625
67.9800	40756.6425
67.9900	41174.2325
68.0000	41389.9425
68.0100	41111.4125
68.0200	40475.0825
68.0300	40234.5150
68.0400	40838.9650
68.0500	40676.2925
68.0600	40691.8875
68.0700	40359.8000
68.0800	40143.5200
68.0900	40299.4900
68.1000	40537.2650
68.1100	40660.9150
68.1200	41146.1750
68.1300	41328.8450
68.1400	40907.2250
68.1500	40908.2325
68.1600	40577.2575
68.1700	40542.8300
68.1800	40814.4400
68.1900	41581.0000
68.2000	41650.9650
68.2100	41036.3500
68.2200	40991.3150
68.2300	40892.0550
68.2400	40845.4800
68.2500	41772.9500
68.2600	41946.6875
68.2700	40608.7925
68.2800	40521.6750
68.2900	40472.5400
68.3000	40642.6025
68.3100	40866.7350
68.3200	40686.3000
68.3300	40890.9200
68.3400	41024.2375
68.3500	40064.0475
68.3600	40123.9650
68.3700	41046.2925
68.3800	40836.9200
68.3900	40734.7325
68.4000	41274.9500
68.4100	41841.7400
68.4200	41983.3325
68.4300	41064.2275
68.4400	40885.9350
68.4500	40466.4875
68.4600	40657.9675
68.4700	40932.9025
68.4800	41007.4925
68.4900	41185.7375
68.5000	40827.4250
68.5100	41028.7900
68.5200	41275.2775
68.5300	41835.4625
68.5400	41587.0325
68.5500	40343.3900
68.5600	39921.2775
68.5700	40712.2025
68.5800	41305.8825
68.5900	41103.4225
68.6000	40754.4800
68.6100	40401.7425
68.6200	40023.1000
68.6300	40386.0800
68.6400	40674.9675
68.6500	40367.7825
68.6600	40882.8225
68.6700	41253.5800
68.6800	40771.0425
68.6900	40458.4975
68.7000	40236.4275
68.7100	40839.3975
68.7200	40619.5950
68.7300	40673.4775
68.7400	40562.5925
68.7500	39511.2225
68.7600	40621.1400
68.7700	40528.2500
68.7800	40206.7025
68.7900	40662.9200
68.8000	41065.7600
68.8100	40790.4875
68.8200	40530.1925
68.8300	40363.5550
68.8400	40496.2900
68.8500	40925.8250
68.8600	40946.9775
68.8700	40768.3725
68.8800	41183.2275
68.8900	40804.5400
68.9000	40069.1750
68.9100	40141.6125
68.9200	40285.8525
68.9300	40945.2050
68.9400	40889.4225
68.9500	40193.4375
68.9600	40945.6875
68.9700	41190.0975
68.9800	41706.1325
68.9900	40895.3975
69.0000	40709.9525
69.0100	40561.5150
69.0200	40371.2975
69.0300	40524.0250
69.0400	40909.7975
69.0500	41140.5425
69.0600	41242.8800
69.0700	41254.7600
69.0800	41011.9350
69.0900	41095.1700
69.1000	41059.5925
69.1100	40980.9850
69.1200	41477.9825
69.1300	41552.5650
69.1400	40881.9800
69.1500	40918.5000
69.1600	41140.2425
69.1700	40672.6725
69.1800	40383.5575
69.1900	41667.5400
69.2000	41713.4650
69.2100	41860.7125
69.2200	41276.5075
69.2300	39856.8725
69.2400	40265.3725
69.2500	39870.0325
69.2600	39519.2725
69.2700	40696.3625
69.2800	40958.3325
69.2900	40535.1750
69.3000	40482.8525
69.3100	40481.1675
69.3200	40608.6225
69.3300	41139.7325
69.3400	40860.3925
69.3500	39614.6475
69.3600	40353.2475
69.3700	40537.9775
69.3800	40818.2450
69.3900	40664.5175
69.4000	41170.7950
69.4100	40807.8400
69.4200	40550.0000
69.4300	40066.3850
69.4400	40279.4000
69.4500	40497.1575
69.4600	40940.9675
69.4700	41611.5525
69.4800	41310.1325
69.4900	40746.7000
69.5000	41318.1875
69.5100	41345.9475
69.5200	40433.1600
69.5300	39900.0100
69.5400	39969.5600
69.5500	40750.5600
69.5600	40897.1900
69.5700	41162.3750
69.5800	41065.0350
69.5900	41048.8825
69.6000	40425.7825
69.6100	40337.8200
69.6200	40792.2075
69.6300	40891.3375
69.6400	40678.9975
69.6500	40799.3425
69.6600	41047.4550
69.6700	41456.5375
69.6800	41307.0875
69.6900	40679.6600
69.7000	40009.9700
69.7100	39594.2350
69.7200	40213.9300
69.7300	40387.9600
69.7400	40415.2150
69.7500	41058.0950
69.7600	40907.4825
69.7700	40721.6450
69.7800	40482.9750
69.7900	39881.0375
69.8000	40904.5450
69.8100	41036.3875
69.8200	40178.0375
69.8300	40490.0925
69.8400	41356.5925
69.8500	41021.9050
69.8600	41139.7475
69.8700	41952.7100
69.8800	42163.4200
69.8900	41387.7925
69.9000	40880.3325
69.9100	41137.6350
69.9200	41120.3825
69.9300	40805.6425
69.9400	41130.4150
69.9500	41432.9625
69.9600	41285.6850
69.9700	40595.5975
69.9800	40588.9700
69.9900	41338.9125
70.0000	40652.7575
70.0100	40987.9900
70.0200	40910.4275
70.0300	40199.5700
70.0400	41161.4975
70.0500	40720.7800
70.0600	40276.8125
70.0700	41344.5825
70.0800	40889.6875
70.0900	40622.3400
70.1000	41366.5925
70.1100	41770.8625
70.1200	41133.7925
70.1300	40382.0700
70.1400	41085.6025
70.1500	41298.3050
70.1600	41702.2275
70.1700	41431.2425
70.1800	40893.1425
70.1900	40830.8575
70.2000	40393.2050
70.2100	40506.5800
70.2200	41019.3200
70.2300	41667.9275
70.2400	41548.8275
70.2500	40661.9950
70.2600	40471.6700
70.2700	40222.1650
70.2800	40613.3200
70.2900	41137.9525
70.3000	40598.8075
70.3100	40265.4650
70.3200	39985.3125
70.3300	39843.6575
70.3400	39511.2900
70.3500	40171.5425
70.3600	40970.1400
70.3700	41189.6500
70.3800	40395.8200
70.3900	39907.0000
70.4000	40998.1625
70.4100	41424.8400
70.4200	39891.5850
70.4300	39927.9100
70.4400	40651.3925
70.4500	40867.7275
70.4600	41559.5725
70.4700	42095.8325
70.4800	40928.4950
70.4900	40796.6150
70.5000	40713.7925
70.5100	40423.1025
70.5200	40452.9750
70.5300	40248.3575
70.5400	40602.1675
70.5500	41651.1750
70.5600	42261.8975
70.5700	41247.0250
70.5800	40299.3125
70.5900	40636.6575
70.6000	40883.3325
70.6100	40974.6250
70.6200	40720.0550
70.6300	40743.0000
70.6400	41113.1050
70.6500	41341.1850
70.6600	41417.5175
70.6700	41638.3775
70.6800	41403.0800
70.6900	41568.7700
70.7000	41728.0475
70.7100	41972.2700
70.7200	41753.4700
70.7300	40542.4750
70.7400	40050.0000
70.7500	40572.7675
70.7600	41418.8075
70.7700	41722.7150
70.7800	40813.6275
70.7900	40576.3000
70.8000	40984.4000
70.8100	40509.3975
70.8200	40318.7350
70.8300	40990.2300
70.8400	41544.0200
70.8500	41349.4050
70.8600	40610.9750
70.8700	40752.3225
70.8800	41504.7125
70.8900	41370.5625
70.9000	40696.8350
70.9100	40444.0450
70.9200	40863.0050
70.9300	40671.0350
70.9400	40336.4275
70.9500	40187.5875
70.9600	40793.7350
70.9700	41630.6400
70.9800	41048.1075
70.9900	41011.0700
71.0000	41702.2175
71.0100	40901.2700
71.0200	39949.0675
71.0300	39688.2525
71.0400	40860.9175
71.0500	40870.1775
71.0600	41084.1675
71.0700	41215.3600
71.0800	41673.0500
71.0900	41466.6850
71.1000	41373.7075
71.1100	41646.9450
71.1200	41941.0700
71.1300	41763.6700
71.1400	41127.8675
71.1500	41164.0625
71.1600	41389.8075
71.1700	41601.6700
71.1800	41425.2950
71.1900	40851.3750
71.2000	41474.2500
71.2100	41255.6400
71.2200	40501.7825
71.2300	40787.4250
71.2400	41268.5050
71.2500	41327.3575
71.2600	40572.5300
71.2700	40474.0000
71.2800	40700.6650
71.2900	41018.3600
71.3000	40948.7925
71.3100	41185.2450
71.3200	40288.7125
71.3300	39811.3400
71.3400	41195.4175
71.3500	40973.7675
71.3600	40176.2825
71.3700	40669.2650
71.3800	41490.6450
71.3900	41499.2325
71.4000	41505.9200
71.4100	41254.7225
71.4200	41200.2375
71.4300	41172.0625
71.4400	41422.7300
71.4500	41366.3775
71.4600	41689.3725
71.4700	41499.6650
71.4800	40710.8000
71.4900	40872.3250
71.5000	41311.0950
71.5100	40772.4725
71.5200	41105.1000
71.5300	40722.9350
71.5400	40444.3425
71.5500	41182.2050
71.5600	41899.2950
71.5700	41639.8775
71.5800	40552.1950
71.5900	40415.8150
71.6000	41353.0750
71.6100	42203.9825
71.6200	41902.0025
71.6300	41356.6850
71.6400	40818.4150
71.6500	40904.2050
71.6600	41834.9600
71.6700	41227.5675
71.6800	41324.3600
71.6900	41423.4675
71.7000	40919.1500
71.7100	40738.7450
71.7200	41180.3800
71.7300	41576.5125
71.7400	41975.4675
71.7500	41460.7975
71.7600	40620.6875
71.7700	40278.5200
71.7800	40949.3075
71.7900	41393.7475
71.8000	41444.3425
71.8100	41593.0625
71.8200	41468.6425
71.8300	40992.7350
71.8400	41635.5900
71.8500	42682.1725
71.8600	41428.7450
71.8700	40979.1525
71.8800	41770.6225
71.8900	42105.2875
71.9000	41809.3875
71.9100	41156.3125
71.9200	40932.9025
71.9300	41158.3175
71.9400	41277.6275
71.9500	40669.7250
71.9600	40733.3850
71.9700	41491.8075
71.9800	41487.7625
71.9900	41420.8825
72.0000	40908.7100
72.0100	41010.3975
72.0200	42102.2850
72.0300	41779.6950
72.0400	40918.6675
72.0500	40585.0225
72.0600	40773.5750
72.0700	40670.7500
72.0800	40266.2550
72.0900	40651.2500
72.1000	41576.8175
72.1100	42102.0200
72.1200	42505.1925
72.1300	41184.7600
72.1400	41097.1525
72.1500	41542.8950
72.1600	41659.5375
72.1700	41199.3875
72.1800	41020.3700
72.1900	41371.1975
72.2000	41196.2775
72.2100	41223.1850
72.2200	41941.8300
72.2300	42462.1950
72.2400	42143.1550
72.2500	42014.3700
72.2600	42055.8150
72.2700	42093.3975
72.2800	41205.6200
72.2900	40987.7275
72.3000	41837.8725
72.3100	41739.8950
72.3200	41819.1375
72.3300	41750.9325
72.3400	41779.0525
72.3500	41715.1550
72.3600	41665.7900
72.3700	41683.3325
72.3800	41423.8400
72.3900	40872.5950
72.4000	41125.4425
72.4100	41361.7300
72.4200	41900.7400
72.4300	42135.2275
72.4400	41948.9100
72.4500	41413.5375
72.4600	41091.1675
72.4700	41395.0275
72.4800	41669.5625
72.4900	42600.2500
72.5000	42814.0325
72.5100	42052.8475
72.5200	41286.0500
72.5300	41351.3375
72.5400	40785.0725
72.5500	40792.0375
72.5600	42425.1875
72.5700	41920.9000
72.5800	41603.5025
72.5900	41924.0875
72.6000	42477.3175
72.6100	42309.8475
72.6200	42646.2000
72.6300	42462.4125
72.6400	41357.4725
72.6500	41457.5525
72.6600	42023.9200
72.6700	41641.6050
72.6800	41489.2575
72.6900	41234.6900
72.7000	41777.9800
72.7100	41134.5100
72.7200	40935.1625
72.7300	40797.0425
72.7400	41722.6975
72.7500	42275.1775
72.7600	41346.4150
72.7700	41352.0750
72.7800	41579.9375
72.7900	41795.5450
72.8000	41858.6250
72.8100	41720.6425
72.8200	41943.9825
72.8300	42100.0000
72.8400	41854.8325
72.8500	41642.0750
72.8600	42132.6425
72.8700	42784.7675
72.8800	42802.3475
72.8900	42636.1425
72.9000	42844.7125
72.9100	43376.8825
72.9200	43451.1350
72.9300	43409.1850
72.9400	42742.6025
72.9500	41786.9625
72.9600	41541.0075
72.9700	41657.6500
72.9800	42124.5425
72.9900	42844.1300
73.0000	42798.4550
73.0100	42669.6850
73.0200	42753.0025
73.0300	43217.8225
73.0400	43032.3125
73.0500	43026.9225
73.0600	43981.9075
73.0700	43793.7750
73.0800	42898.1950
73.0900	42367.2875
73.1000	42317.9300
73.1100	42112.9550
73.1200	42569.0475
73.1300	43423.7800
73.1400	43589.9275
73.1500	42598.0850
73.1600	42615.5350
73.1700	43946.3200
73.1800	43594.4950
73.1900	43144.9100
73.2000	42883.7300
73.2100	42078.1950
73.2200	42517.3925
73.2300	42962.2675
73.2400	43076.3525
73.2500	43655.2600
73.2600	43739.5400
73.2700	43543.0275
73.2800	44057.3825
73.2900	44183.5775
73.3000	43835.4425
73.3100	44246.3675
73.3200	44304.0700
73.3300	44402.0150
73.3400	44696.9650
73.3500	44426.5275
73.3600	44552.3825
73.3700	44844.3925
73.3800	44983.8775
73.3900	45138.1500
73.4000	45629.6150
73.4100	45747.1550
73.4200	45331.5600
73.4300	45395.0575
73.4400	46209.3425
73.4500	47008.0425
73.4600	47521.9450
73.4700	47955.1975
73.4800	48012.1350
73.4900	48378.4500
73.5000	47943.8425
73.5100	47700.4325
73.5200	48050.5725
73.5300	49567.3025
73.5400	50915.4825
73.5500	50659.6200
73.5600	51161.3375
73.5700	52167.0625
73.5800	52643.8375
73.5900	53052.1400
73.6000	52139.7025
73.6100	53201.3825
73.6200	54514.3850
73.6300	54475.2100
73.6400	55036.6025
73.6500	55346.0000
73.6600	55917.5425
73.6700	57162.6825
73.6800	57984.6625
73.6900	58571.7825
73.7000	59720.1175
73.7100	60650.7775
73.7200	61599.4375
73.7300	62801.1000
73.7400	64521.6950
73.7500	65698.0950
73.7600	66447.5675
73.7700	67630.8475
73.7800	69461.6475
73.7900	70892.1200
73.8000	72422.2425
73.8100	75911.3450
73.8200	77896.0525
73.8300	80849.3500
73.8400	84463.1775
73.8500	88424.7150
73.8600	92396.7875
73.8700	96387.0875
73.8800	102115.0625
73.8900	106126.6600
73.9000	110450.3300
73.9100	117503.7075
73.9200	125388.7650
73.9300	132843.0175
73.9400	142395.0500
73.9500	153376.3950
73.9600	162667.7025
73.9700	171410.7125
73.9800	181767.0650
73.9900	192066.8450
74.0000	203005.1675
74.0100	208423.6450
74.0200	212205.6675
74.0300	218214.7050
74.0400	218177.2300
74.0500	216034.7025
74.0600	211871.2500
74.0700	203254.5175
74.0800	194252.6050
74.0900	187730.1425
74.1000	180097.5750
74.1100	170928.6100
74.1200	163232.9625
74.1300	158312.0025
74.1400	153477.2825
74.1500	151243.6850
74.1600	153021.1050
74.1700	152677.6750
74.1800	151405.6650
74.1900	151343.3125
74.2000	153316.3450
74.2100	155298.0050
74.2200	154541.9675
74.2300	154874.7475
74.2400	153467.3675
74.2500	151295.3650
74.2600	148559.9625
74.2700	145144.4300
74.2800	138342.8350
74.2900	131216.1275
74.3000	123640.8825
74.3100	116453.9550
74.3200	111334.3775
74.3300	106962.0000
74.3400	102259.7175
74.3500	97608.8450
74.3600	92851.2275
74.3700	87796.5325
74.3800	83784.0525
74.3900	81502.4900
74.4000	79126.6025
74.4100	76399.1650
74.4200	72610.5675
74.4300	70178.9625
74.4400	68164.3525
74.4500	67404.0400
74.4600	66540.6350
74.4700	63872.4675
74.4800	62431.0375
74.4900	60871.7000
74.5000	59730.3850
74.5100	59133.3500
74.5200	58772.4825
74.5300	56705.5425
74.5400	55339.1825
74.5500	55229.0675
74.5600	54767.9825
74.5700	54226.5500
74.5800	53695.6275
74.5900	52383.5950
74.6000	51278.5575
74.6100	50966.0825
74.6200	50680.4875
74.6300	50152.6700
74.6400	49411.2525
74.6500	49709.8750
74.6600	50035.8450
74.6700	48993.5350
74.6800	48400.4850
74.6900	47302.7500
74.7000	46728.1350
74.7100	47025.0250
74.7200	47049.1375
74.7300	47053.9175
74.7400	46878.2225
74.7500	46158.8825
74.7600	45914.3125
74.7700	45909.3450
74.7800	45376.7125
74.7900	45046.5325
74.8000	45516.4300
74.8100	45793.0850
74.8200	45082.6450
74.8300	44552.8825
74.8400	44500.0000
74.8500	45072.9100
74.8600	45319.3700
74.8700	44640.6350
74.8800	43667.5025
74.8900	43072.4850
74.9000	43234.4650
74.9100	42911.5100
74.9200	43289.0025
74.9300	44067.5600
74.9400	43975.8800
74.9500	43452.5250
74.9600	42632.0225
74.9700	42714.2575
74.9800	43544.1800
74.9900	44063.5850
75.0000	44063.1975
75.0100	44023.3675
75.0200	43959.9450
75.0300	43399.8225
75.0400	42996.6600
75.0500	43019.9875
75.0600	42486.9125
75.0700	43339.1575
75.0800	43597.2025
75.0900	43446.3925
75.1000	42920.9875
75.1100	42207.1100
75.1200	42153.0975
75.1300	42373.0225
75.1400	42995.3550
75.1500	43419.8100
75.1600	43147.6225
75.1700	42953.2675
75.1800	42916.8400
75.1900	43102.5100
75.2000	43479.0800
75.2100	43155.3725
75.2200	42644.1875
75.2300	43074.0075
75.2400	43121.6500
75.2500	42691.1025
75.2600	42311.3200
75.2700	42110.2300
75.2800	42639.9750
75.2900	42231.6000
75.3000	42077.5325
75.3100	41985.6925
75.3200	41730.1400
75.3300	41776.2325
75.3400	42670.2350
75.3500	42704.2475
75.3600	41896.8375
75.3700	42115.7300
75.3800	42803.7925
75.3900	43053.1600
75.4000	42481.9400
75.4100	41677.0975
75.4200	41231.6025
75.4300	41285.0250
75.4400	41400.0000
75.4500	41320.8125
75.4600	41108.3275
75.4700	41910.2275
75.4800	42187.1350
75.4900	41682.9975
75.5000	41836.1450
75.5100	42837.6400
75.5200	42704.5800
75.5300	42487.1100
75.5400	42501.8425
75.5500	42281.5025
75.5600	41884.0800
75.5700	42021.9925
75.5800	42197.5925
75.5900	41883.6325
75.6000	41305.4725
75.6100	41329.1600
75.6200	41947.3925
75.6300	42341.7525
75.6400	42929.0725
75.6500	42928.6750
75.6600	42545.4425
75.6700	42853.7300
75.6800	42385.1275
75.6900	41325.3275
75.7000	41382.9725
75.7100	41506.2500
75.7200	41983.3125
75.7300	42085.3275
75.7400	42328.7350
75.7500	42826.9225
75.7600	42330.9150
75.7700	42224.2100
75.7800	42842.8925
75.7900	43244.3275
75.8000	42646.0825
75.8100	41263.6250
75.8200	40751.0950
75.8300	41245.4075
75.8400	41876.6500
75.8500	42155.8950
75.8600	41879.3875
75.8700	42117.5825
75.8800	41492.4975
75.8900	41127.2800
75.9000	41852.5250
75.9100	42226.4600
75.9200	42311.6675
75.9300	42092.5575
75.9400	41645.5250
75.9500	41721.0850
75.9600	41792.3850
75.9700	42166.5975
75.9800	42590.9025
75.9900	42451.5750
76.0000	42124.0550
76.0100	42273.6350
76.0200	42046.5300
76.0300	41271.3425
76.0400	41597.4525
76.0500	41910.4375
76.0600	41624.2775
76.0700	41099.8300
76.0800	40641.0200
76.0900	41053.2550
76.1000	41638.1700
76.1100	41637.0525
76.1200	41923.3350
76.1300	41800.3325
76.1400	41389.9675
76.1500	41592.3200
76.1600	41770.7750
76.1700	41818.1800
76.1800	42285.4000
76.1900	42057.5900
76.2000	41887.7475
76.2100	42023.6025
76.2200	41938.8250
76.2300	41737.4125
76.2400	41341.5500
76.2500	40870.7800
76.2600	41188.8900
76.2700	41899.9325
76.2800	42286.0575
76.2900	42227.8700
76.3000	41660.0825
76.3100	41517.8725
76.3200	42465.7000
76.3300	42030.5750
76.3400	41688.2775
76.3500	41927.8475
76.3600	41696.2350
76.3700	41695.5200
76.3800	41955.1900
76.3900	41882.4125
76.4000	41226.4325
76.4100	41198.9775
76.4200	41265.8525
76.4300	41753.5025
76.4400	42141.8700
76.4500	41363.8275
76.4600	41094.8200
76.4700	41341.4300
76.4800	40715.3425
76.4900	40543.0675
76.5000	40950.5375
76.5100	41354.2500
76.5200	42043.3650
76.5300	42496.7200
76.5400	42305.5700
76.5500	41720.2575
76.5600	41385.0000
76.5700	41514.3050
76.5800	41903.9050
76.5900	41549.2950
76.6000	41632.9875
76.6100	41423.1675
76.6200	41644.3250
76.6300	41800.7075
76.6400	41177.9125
76.6500	41346.5875
76.6600	41625.4375
76.6700	40898.3450
76.6800	41354.9575
76.6900	41924.6225
76.7000	41688.6925
76.7100	41564.0525
76.7200	41819.9000
76.7300	41968.4775
76.7400	42145.3250
76.7500	41818.2850
76.7600	41283.6450
76.7700	41313.7275
76.7800	41221.4875
76.7900	41875.3975
76.8000	41898.7275
76.8100	41781.6925
76.8200	41740.1825
76.8300	41165.1500
76.8400	40758.2775
76.8500	41349.5475
76.8600	41782.6850
76.8700	42137.1575
76.8800	41529.6875
76.8900	40895.5025
76.9000	40993.5475
76.9100	41242.1700
76.9200	41565.8650
76.9300	41488.6825
76.9400	41698.2775
76.9500	41861.0425
76.9600	41303.2975
76.9700	41295.5700
76.9800	41713.1600
76.9900	41286.3550
77.0000	40681.8475
77.0100	40936.2400
77.0200	41530.6700
77.0300	41817.1300
77.0400	41952.9625
77.0500	42045.4275
77.0600	41865.3725
77.0700	42445.0500
77.0800	42638.3625
77.0900	41980.9300
77.1000	41108.5625
77.1100	40951.5200
77.1200	41370.2625
77.1300	41341.8300
77.1400	40970.2325
77.1500	41048.8775
77.1600	41731.0125
77.1700	41707.6600
77.1800	41273.1500
77.1900	40812.7100
77.2000	40769.9950
77.2100	41545.4000
77.2200	42621.5375
77.2300	42481.0100
77.2400	41316.3900
77.2500	41003.1625
77.2600	41501.1425
77.2700	41835.9950
77.2800	42148.3950
77.2900	41788.8575
77.3000	41650.7575
77.3100	41611.2650
77.3200	41662.4875
77.3300	42072.0000
77.3400	41915.9150
77.3500	41618.9475
77.3600	41163.4600
77.3700	41031.2825
77.3800	41414.7025
77.3900	41991.0775
77.4000	41968.6075
77.4100	41084.9000
77.4200	40962.3075
77.4300	41681.3875
77.4400	42254.9600
77.4500	42166.4825
77.4600	41394.9200
77.4700	41100.0550
77.4800	42038.3275
77.4900	42780.9675
77.5000	42571.4275
77.5100	42102.4150
77.5200	42059.4850
77.5300	42042.9075
77.5400	41845.2950
77.5500	41690.5275
77.5600	41300.2725
77.5700	40526.6900
77.5800	40418.7375
77.5900	40823.5775
77.6000	41442.2100
77.6100	41904.6050
77.6200	41869.2325
77.6300	41222.4150
77.6400	41047.1525
77.6500	41651.5350
77.6600	41957.1625
77.6700	41693.4450
77.6800	42117.5525
77.6900	42250.8475
77.7000	42208.9625
77.7100	42243.2050
77.7200	41969.5800
77.7300	41918.7850
77.7400	41764.9850
77.7500	41543.0475
77.7600	41651.8550
77.7700	41187.7925
77.7800	40930.2825
77.7900	41541.0325
77.8000	41586.9600
77.8100	40818.8475
77.8200	41033.1050
77.8300	42116.3625
77.8400	42118.7500
77.8500	41633.9450
77.8600	41448.0225
77.8700	41771.9200
77.8800	41924.5175
77.8900	41892.4700
77.9000	42215.2775
77.9100	41488.3125
77.9200	40593.8975
77.9300	40705.7075
77.9400	40767.4275
77.9500	40979.1225
77.9600	41282.9375
77.9700	41390.1300
77.9800	41565.8425
77.9900	41344.9000
78.0000	40939.1375
78.0100	41384.3500
78.0200	41618.0000
78.0300	41466.6675
78.0400	41400.4600
78.0500	41406.7400
78.0600	41497.2775
78.0700	41296.9700
78.0800	41163.9350
78.0900	40869.1675
78.1000	40125.2050
78.1100	40194.1550
78.1200	40788.4550
78.1300	41606.8925
78.1400	41535.4225
78.1500	41267.7975
78.1600	41430.5550
78.1700	41136.1475
78.1800	41138.2750
78.1900	41710.9825
78.2000	41905.6000
78.2100	41540.7250
78.2200	41788.5625
78.2300	41772.5275
78.2400	41879.6350
78.2500	41636.1225
78.2600	40735.5550
78.2700	40753.3975
78.2800	41417.8250
78.2900	41916.8975
78.3000	42036.1875
78.3100	42311.1300
78.3200	42559.4275
78.3300	41944.5475
78.3400	41617.4650
78.3500	41460.0400
78.3600	41683.4500
78.3700	42308.7425
78.3800	42137.6625
78.3900	41503.6450
78.4000	41061.6275
78.4100	41444.0500
78.4200	42075.9950
78.4300	42297.0775
78.4400	42258.0175
78.4500	42529.4675
78.4600	42228.0075
78.4700	41762.3550
78.4800	41432.2050
78.4900	41331.7275
78.5000	41198.1300
78.5100	40602.7550
78.5200	40603.1400
78.5300	41197.9875
78.5400	41946.2725
78.5500	42015.7700
78.5600	41999.5775
78.5700	42411.0900
78.5800	43267.3925
78.5900	43614.1525
78.6000	43145.0100
78.6100	42732.9850
78.6200	42804.5825
78.6300	42677.5500
78.6400	42288.1850
78.6500	42366.0325
78.6600	42561.5075
78.6700	42611.5050
78.6800	42201.4050
78.6900	42786.7625
78.7000	42852.2475
78.7100	42819.3350
78.7200	43183.3325
78.7300	43427.3350
78.7400	43006.7275
78.7500	42505.1850
78.7600	43205.7250
78.7700	43710.3825
78.7800	43507.2125
78.7900	43411.4700
78.8000	43874.0850
78.8100	44460.4600
78.8200	44987.5250
78.8300	44546.8950
78.8400	43371.9600
78.8500	43033.2975
78.8600	43440.5250
78.8700	43872.8225
78.8800	44333.1650
78.8900	44407.3975
78.9000	44489.4250
78.9100	44968.4725
78.9200	45759.8850
78.9300	45808.7400
78.9400	45132.7475
78.9500	45198.4850
78.9600	45698.6575
78.9700	46203.6600
78.9800	46401.1475
78.9900	46013.0775
79.0000	45459.9025
79.0100	46038.0350
79.0200	47143.8225
79.0300	47441.8275
79.0400	48384.2175
79.0500	49774.6175
79.0600	49978.7875
79.0700	49504.8350
79.0800	49720.7575
79.0900	49956.5075
79.1000	50304.0025
79.1100	51296.9875
79.1200	52265.2875
79.1300	53579.2325
79.1400	54277.2675
79.1500	55382.5675
79.1600	56937.3000
79.1700	57487.3650
79.1800	58871.0325
79.1900	60064.0850
79.2000	59961.2200
79.2100	61256.6550
79.2200	63333.6575
79.2300	64645.4750
79.2400	65968.1200
79.2500	66799.3375
79.2600	67112.6525
79.2700	68069.1950
79.2800	68970.5925
79.2900	68436.9500
79.3000	67691.4100
79.3100	67949.1075
79.3200	67522.5025
79.3300	65718.9800
79.3400	64675.4000
79.3500	63833.4525
79.3600	61687.6925
79.3700	60790.9600
79.3800	59122.5150
79.3900	57784.4275
79.4000	57497.3050
79.4100	56812.5775
79.4200	55843.8625
79.4300	54843.5050
79.4400	53654.2750
79.4500	52776.4575
79.4600	51901.5025
79.4700	50940.2575
79.4800	50421.1275
79.4900	50564.6000
79.5000	49924.9150
79.5100	49484.6625
79.5200	49245.8825
79.5300	48592.8850
79.5400	48070.8350
79.5500	48017.4825
79.5600	47842.9825
79.5700	47339.5275
79.5800	46993.8100
79.5900	46622.9150
79.6000	46742.1550
79.6100	46739.6375
79.6200	45752.3250
79.6300	44687.0900
79.6400	44500.6575
79.6500	44893.5875
79.6600	44886.2425
79.6700	44437.8825
79.6800	44263.1250
79.6900	44773.8325
79.7000	45047.8125
79.7100	44335.0225
79.7200	44084.1075
79.7300	43911.8575
79.7400	44396.6825
79.7500	44394.5775
79.7600	43937.1350
79.7700	43985.2325
79.7800	43452.3650
79.7900	43239.4100
79.8000	43360.9875
79.8100	43734.2200
79.8200	43537.8225
79.8300	43246.5450
79.8400	42635.7500
79.8500	42224.3425
79.8600	42915.7125
79.8700	43255.3900
79.8800	43287.2025
79.8900	43327.7075
79.9000	42634.4350
79.9100	42125.9350
79.9200	42800.6275
79.9300	43509.4050
79.9400	43696.3300
79.9500	43362.7350
79.9600	43742.9325
79.9700	43190.3100
79.9800	41955.4525
79.9900	42324.1875
80.0000	42766.6625
80.0100	42394.4575
80.0200	42325.8975
80.0300	42725.8575
80.0400	43238.7725
80.0500	43566.6250
80.0600	43198.4075
80.0700	42285.5850
80.0800	42499.4525
80.0900	42996.3300
80.1000	42457.9400
80.1100	42419.9425
80.1200	42605.6975
80.1300	42479.6800
80.1400	42810.5725
80.1500	42452.8925
80.1600	41766.9525
80.1700	42076.9650
80.1800	42026.7175
80.1900	41589.1175
80.2000	41888.0450
80.2100	42135.3325
80.2200	42305.0225
80.2300	42732.7050
80.2400	42637.8150
80.2500	42538.5075
80.2600	42317.6200
80.2700	41616.1075
80.2800	41331.2825
80.2900	41780.2075
80.3000	42450.6850
80.3100	42318.0975
80.3200	42094.0500
80.3300	42432.4175
80.3400	42126.0000
80.3500	41688.9975
80.3600	42044.7725
80.3700	42008.8225
80.3800	41973.0500
80.3900	42166.6675
80.4000	42286.4975
80.4100	42364.9000
80.4200	42690.9750
80.4300	43510.3175
80.4400	43176.0800
80.4500	42117.0250
80.4600	42310.1225
80.4700	43348.6500
80.4800	42958.4900
80.4900	42084.2600
80.5000	42216.9925
80.5100	42433.3325
80.5200	42543.7875
80.5300	42568.9100
80.5400	42047.3550
80.5500	41372.2325
80.5600	41170.1325
80.5700	41843.9150
80.5800	41759.6225
80.5900	41101.1300
80.6000	41297.7000
80.6100	42256.2325
80.6200	42402.9800
80.6300	41579.4950
80.6400	40880.0375
80.6500	41589.0525
80.6600	42201.2750
80.6700	41717.5500
80.6800	40735.1900
80.6900	41094.3450
80.7000	41776.5300
80.7100	41652.3875
80.7200	41958.0750
80.7300	41818.5275
80.7400	41769.5750
80.7500	42209.4025
80.7600	42247.3700
80.7700	41516.8900
80.7800	41100.9175
80.7900	41577.7775
80.8000	41423.0600
80.8100	42115.4750
80.8200	43155.8825
80.8300	42522.3650
80.8400	42000.8375
80.8500	42468.3000
80.8600	42664.1925
80.8700	41943.5550
80.8800	41561.6050
80.8900	41529.2525
80.9000	41132.7150
80.9100	41128.9625
80.9200	41975.9875
80.9300	42580.7575
80.9400	42642.4875
80.9500	42585.9250
80.9600	42002.5025
80.9700	41676.4775
80.9800	42215.0025
80.9900	42574.1850
81.0000	42374.5750
81.0100	41923.9975
81.0200	41436.4275
81.0300	41562.4950
81.0400	41988.7500
81.0500	42089.2450
81.0600	42304.2950
81.0700	42143.6100
81.0800	42279.4350
81.0900	42048.6525
81.1000	41557.5325
81.1100	42289.7750
81.1200	42516.4675
81.1300	42081.3050
81.1400	41946.8175
81.1500	42090.0950
81.1600	41977.7925
81.1700	41511.1650
81.1800	42148.5100
81.1900	42375.6350
81.2000	42056.3025
81.2100	42280.8225
81.2200	41577.7750
81.2300	41211.5475
81.2400	41510.6800
81.2500	42490.3350
81.2600	43000.8325
81.2700	41928.4025
81.2800	41679.7325
81.2900	41958.9125
81.3000	41965.3000
81.3100	41905.8475
81.3200	41353.8725
81.3300	42002.8975
81.3400	42522.3325
81.3500	41967.8850
81.3600	41669.6400
81.3700	41452.9100
81.3800	41716.9000
81.3900	42040.9050
81.4000	41369.5175
81.4100	41825.8725
81.4200	42466.6750
81.4300	42509.0475
81.4400	42428.8800
81.4500	41944.0825
81.4600	42334.4275
81.4700	42595.6675
81.4800	41811.1800
81.4900	41460.4575
81.5000	41784.5600
81.5100	41875.8925
81.5200	42172.1125
81.5300	42301.8450
81.5400	42168.1450
81.5500	42246.8325
81.5600	41683.2425
81.5700	40676.9700
81.5800	40846.9500
81.5900	41913.5200
81.6000	42227.7850
81.6100	42110.5200
81.6200	42260.1850
81.6300	41777.8100
81.6400	41645.6450
81.6500	41959.0550
81.6600	42138.7050
81.6700	42310.4925
81.6800	42315.2300
81.6900	41956.1000
81.7000	41847.6350
81.7100	42307.5950
81.7200	42331.4875
81.7300	41563.5775
81.7400	41698.2000
81.7500	42144.3425
81.7600	42236.9950
81.7700	42538.3775
81.7800	42746.5825
81.7900	42971.6475
81.8000	42637.9425
81.8100	42106.9000
81.8200	41620.7700
81.8300	41453.4700
81.8400	42422.7500
81.8500	42655.0425
81.8600	42259.0225
81.8700	42970.3075
81.8800	42863.1550
81.8900	42230.5950
81.9000	42172.9525
81.9100	42808.0500
81.9200	43258.5150
81.9300	42571.9400
81.9400	41841.4350
81.9500	41704.0450
81.9600	41894.0950
81.9700	41908.6175
81.9800	42221.7775
81.9900	42368.6500
82.0000	41939.0275
82.0100	42238.5100
82.0200	42836.2575
82.0300	42418.0425
82.0400	41734.1900
82.0500	41073.5125
82.0600	41098.1175
82.0700	41727.2825
82.0800	42237.5200
82.0900	42043.1550
82.1000	41945.0925
82.1100	42066.5975
82.1200	41787.1100
82.1300	41534.5975
82.1400	41979.4825
82.1500	42612.7825
82.1600	42407.8425
82.1700	41974.4375
82.1800	42297.0825
82.1900	42424.6075
82.2000	41669.9050
82.2100	41845.2250
82.2200	41952.0200
82.2300	41835.3975
82.2400	41896.5050
82.2500	41821.6325
82.2600	41865.4300
82.2700	41706.7975
82.2800	41529.6425
82.2900	41787.5125
82.3000	42425.6700
82.3100	42741.0575
82.3200	42474.0525
82.3300	41561.7150
82.3400	41458.1925
82.3500	42347.9475
82.3600	42473.0775
82.3700	42045.7825
82.3800	41579.7450
82.3900	41646.9700
82.4000	42290.3375
82.4100	42412.6150
82.4200	42142.9450
82.4300	41791.3450
82.4400	41923.3550
82.4500	42099.6050
82.4600	42018.9850
82.4700	42076.7325
82.4800	41788.1800
82.4900	41035.6825
82.5000	41382.5025
82.5100	42112.3200
82.5200	41775.0225
82.5300	42154.1475
82.5400	42098.2750
82.5500	41846.8975
82.5600	41954.3600
82.5700	41498.8325
82.5800	41507.7675
82.5900	41217.9175
82.6000	41202.0000
82.6100	41796.5075
82.6200	42018.8550
82.6300	42911.1675
82.6400	43187.3700
82.6500	42633.5600
82.6600	42667.4850
82.6700	42338.7900
82.6800	41818.0575
82.6900	42089.0025
82.7000	41920.3425
82.7100	41625.1050
82.7200	41891.7375
82.7300	42034.3800
82.7400	41731.2500
82.7500	41095.9200
82.7600	41570.9625
82.7700	42390.5325
82.7800	42676.9050
82.7900	42506.1400
82.8000	42269.7125
82.8100	42679.0475
82.8200	42407.9675
82.8300	42183.6900
82.8400	42838.5975
82.8500	42724.2000
82.8600	42175.4325
82.8700	42544.1950
82.8800	42348.1050
82.8900	41827.4350
82.9000	42043.0250
82.9100	42103.0275
82.9200	41769.8950
82.9300	41796.7075
82.9400	42536.3750
82.9500	42304.3050
82.9600	41877.0200
82.9700	42331.6500
82.9800	42240.1675
82.9900	41818.9750
83.0000	41751.8450
83.0100	42205.3475
83.0200	42794.2825
83.0300	42737.2925
83.0400	42639.6525
83.0500	43057.3800
83.0600	42868.0025
83.0700	42239.3425
83.0800	42067.5500
83.0900	42092.1050
83.1000	41565.0300
83.1100	42047.7600
83.1200	42504.7100
83.1300	42361.1600
83.1400	42146.1850
83.1500	41880.5150
83.1600	42079.6375
83.1700	42481.7550
83.1800	43125.4125
83.1900	43432.5050
83.2000	43154.3225
83.2100	42671.8825
83.2200	43035.5575
83.2300	43391.9250
83.2400	43119.7850
83.2500	42946.8125
83.2600	42734.9350
83.2700	42416.7400
83.2800	42049.3450
83.2900	41936.4375
83.3000	42226.6900
83.3100	42938.8725
83.3200	43783.3950
83.3300	43915.5625
83.3400	43377.0475
83.3500	43223.3650
83.3600	43079.4725
83.3700	42520.8625
83.3800	43006.6750
83.3900	43908.6725
83.4000	44273.8400
83.4100	44407.2650
83.4200	44678.6750
83.4300	44620.0175
83.4400	45045.8725
83.4500	45473.6750
83.4600	45562.3175
83.4700	46509.1250
83.4800	47376.7650
83.4900	47660.0025
83.5000	48133.2150
83.5100	49035.7000
83.5200	49785.7350
83.5300	49998.0650
83.5400	50166.3250
83.5500	50349.3675
83.5600	49918.2650
83.5700	49420.9550
83.5800	49990.7050
83.5900	50944.9350
83.6000	51206.8225
83.6100	50890.4175
83.6200	50529.7750
83.6300	49527.5000
83.6400	48829.9425
83.6500	49233.9200
83.6600	48716.3175
83.6700	47517.5500
83.6800	47342.2575
83.6900	47410.5975
83.7000	46682.5325
83.7100	45805.3300
83.7200	45896.6800
83.7300	46188.2350
83.7400	45834.1000
83.7500	45179.0325
83.7600	44972.2725
83.7700	45347.4575
83.7800	44434.8350
83.7900	43151.2100
83.8000	44331.6850
83.8100	45623.8025
83.8200	45120.5700
83.8300	43920.9075
83.8400	42977.3500
83.8500	42963.5550
83.8600	43098.6575
83.8700	43255.2975
83.8800	43347.3900
83.8900	43181.6175
83.9000	43586.6175
83.9100	43819.8000
83.9200	42950.6900
83.9300	42615.3900
83.9400	42669.6425
83.9500	43098.1675
83.9600	43367.1300
83.9700	42615.7525
83.9800	43000.3950
83.9900	43383.8325
84.0000	43263.1650
84.0100	42768.5800
84.0200	42440.5725
84.0300	43191.4475
84.0400	43022.3950
84.0500	42321.9150
84.0600	42183.6525
84.0700	42497.1175
84.0800	42859.7050
84.0900	42729.7575
84.1000	42228.0900
84.1100	41433.2750
84.1200	41288.8875
84.1300	42353.4500
84.1400	42982.0125
84.1500	42248.4300
84.1600	41828.1300
84.1700	42481.4525
84.1800	42240.5375
84.1900	41574.8850
84.2000	41456.8850
84.2100	41856.4725
84.2200	42223.4350
84.2300	41838.5400
84.2400	41945.8525
84.2500	42316.8550
84.2600	41987.9650
84.2700	41700.5200
84.2800	42271.8225
84.2900	42682.3775
84.3000	42389.9175
84.3100	41678.8425
84.3200	41267.4925
84.3300	41391.8625
84.3400	41794.4400
84.3500	42149.8850
84.3600	41906.8650
84.3700	41591.1100
84.3800	41525.1400
84.3900	41650.5200
84.4000	42118.4125
84.4100	42408.0100
84.4200	42684.6875
84.4300	42891.1800
84.4400	42591.1950
84.4500	42450.0425
84.4600	42466.6675
84.4700	42934.0950
84.4800	43283.1950
84.4900	42074.2100
84.5000	40733.2650
84.5100	40724.9550
84.5200	41241.4900
84.5300	41766.3900
84.5400	41750.4175
84.5500	41516.6000
84.5600	41816.0025
84.5700	42025.1725
84.5800	42597.8350
84.5900	43474.0600
84.6000	43210.5450
84.6100	42136.0650
84.6200	42395.5900
84.6300	42736.2150
84.6400	42481.7725
84.6500	42691.9475
84.6600	42757.5550
84.6700	42081.0700
84.6800	41432.1125
84.6900	42029.4525
84.7000	41930.0850
84.7100	41482.2150
84.7200	42020.7175
84.7300	42243.8675
84.7400	42156.9525
84.7500	42439.8400
84.7600	42756.4300
84.7700	42595.7350
84.7800	41748.4975
84.7900	41134.4575
84.8000	41304.7175
84.8100	42084.0575
84.8200	42444.2900
84.8300	42315.8925
84.8400	42620.8675
84.8500	42252.2525
84.8600	41870.3250
84.8700	41871.6275
84.8800	41910.6625
84.8900	42446.2950
84.9000	42486.5050
84.9100	41965.3350
84.9200	41902.1500
84.9300	42249.3150
84.9400	42152.8100
84.9500	42081.8925
84.9600	42019.6150
84.9700	41842.6100
84.9800	42150.0375
84.9900	42622.4350
85.0000	42603.2275
85.0100	42352.8850
85.0200	42225.2100
85.0300	42200.4300
85.0400	42337.5025
85.0500	42410.7925
85.0600	42519.2975
85.0700	42239.1825
85.0800	41959.5575
85.0900	42362.3200
85.1000	42395.3550
85.1100	42363.6625
85.1200	42393.9600
85.1300	42324.7400
85.1400	42067.0450
85.1500	41944.6300
85.1600	42414.8975
85.1700	42507.7750
85.1800	42749.7325
85.1900	42502.2475
85.2000	41755.7100
85.2100	42154.8250
85.2200	42218.8575
85.2300	41531.3225
85.2400	41758.5375
85.2500	42802.8225
85.2600	42510.1550
85.2700	41711.2500
85.2800	41929.5050
85.2900	42170.0000
85.3000	42171.2800
85.3100	41987.0000
85.3200	42561.7600
85.3300	42965.9825
85.3400	41920.0025
85.3500	41505.0750
85.3600	41296.5375
85.3700	41373.4575
85.3800	42261.5000
85.3900	42663.2900
85.4000	42550.0000
85.4100	42550.0000
85.4200	42708.7500
85.4300	42550.1650
85.4400	41985.1425
85.4500	41560.6750
85.4600	42148.8675
85.4700	42583.1425
85.4800	42398.7975
85.4900	42395.2300
85.5000	41596.3350
85.5100	41285.0600
85.5200	41882.0550
85.5300	41927.0250
85.5400	41880.5500
85.5500	42180.4825
85.5600	41649.1625
85.5700	41342.1375
85.5800	41851.9350
85.5900	42770.9900
85.6000	42584.9875
85.6100	41699.0475
85.6200	41408.8300
85.6300	41439.1600
85.6400	41913.8075
85.6500	42462.5725
85.6600	42400.4550
85.6700	42218.7550
85.6800	42253.5875
85.6900	42208.5200
85.7000	41731.4600
85.7100	41552.5475
85.7200	41868.9675
85.7300	41888.8700
85.7400	42313.1100
85.7500	42527.0850
85.7600	42519.2425
85.7700	42829.3150
85.7800	42648.8400
85.7900	42542.7050
85.8000	42578.0725
85.8100	42257.2250
85.8200	41379.3975
85.8300	40958.5025
85.8400	41103.5550
85.8500	42519.9350
85.8600	43021.3200
85.8700	42085.8500
85.8800	42173.1800
85.8900	42647.4750
85.9000	43194.7750
85.9100	43206.6425
85.9200	42232.3375
85.9300	42192.4925
85.9400	42908.7125
85.9500	42237.2900
85.9600	41857.6550
85.9700	42348.5325
85.9800	42740.8775
85.9900	42304.2100
86.0000	42552.2925
86.0100	42823.4925
86.0200	42142.3325
86.0300	41847.1250
86.0400	41685.5000
86.0500	41875.7825
86.0600	42474.5025
86.0700	42590.9250
86.0800	42782.0625
86.0900	42530.0300
86.1000	42065.1325
86.1100	41842.7475
86.1200	42068.6025
86.1300	43067.5975
86.1400	42972.4475
86.1500	42229.9500
86.1600	41958.7250
86.1700	42607.4700
86.1800	42794.0475
86.1900	42222.5650
86.2000	42678.3875
86.2100	42794.4800
86.2200	42345.0225
86.2300	42355.0150
86.2400	42442.3425
86.2500	42788.8375
86.2600	42760.6525
86.2700	42937.5025
86.2800	43091.0175
86.2900	42454.7450
86.3000	42778.8975
86.3100	42977.5375
86.3200	42464.5650
86.3300	42481.8075
86.3400	42434.7175
86.3500	42264.8500
86.3600	42424.2850
86.3700	42548.1150
86.3800	42616.6425
86.3900	42287.5400
86.4000	42006.7750
86.4100	42529.3700
86.4200	42960.0075
86.4300	42885.3850
86.4400	42373.6850
86.4500	42569.7375
86.4600	42332.2050
86.4700	41903.4150
86.4800	42118.8950
86.4900	43059.6825
86.5000	43418.8875
86.5100	42949.0175
86.5200	42725.1600
86.5300	42216.1150
86.5400	42172.4175
86.5500	41904.2475
86.5600	42556.2625
86.5700	43206.2875
86.5800	42829.7325
86.5900	42460.3000
86.6000	42407.6800
86.6100	42353.7775
86.6200	42669.7400
86.6300	42621.7525
86.6400	42093.5950
86.6500	42085.2225
86.6600	42052.0950
86.6700	41656.1450
86.6800	41518.9075
86.6900	41845.9000
86.7000	42134.4100
86.7100	42182.8025
86.7200	42396.7975
86.7300	42482.3025
86.7400	42862.0250
86.7500	42871.3375
86.7600	42740.2650
86.7700	42702.4950
86.7800	42716.6300
86.7900	42312.0650
86.8000	41564.8850
86.8100	41192.4975
86.8200	41347.7425
86.8300	41477.7775
86.8400	42128.7125
86.8500	42874.9600
86.8600	43034.0675
86.8700	43091.2525
86.8800	42925.4150
86.8900	42173.2650
86.9000	41933.3325
86.9100	42229.6600
86.9200	42724.9625
86.9300	42807.7525
86.9400	43052.4725
86.9500	42778.0050
86.9600	41706.9725
86.9700	42164.4975
86.9800	42823.1600
86.9900	42281.3825
87.0000	42583.5425
87.0100	42526.4825
87.0200	41395.3600
87.0300	41617.8775
87.0400	41668.3650
87.0500	41916.7975
87.0600	42220.9325
87.0700	42518.0375
87.0800	42816.2750
87.0900	42993.5100
87.1000	42853.7850
87.1100	42861.7675
87.1200	42528.5825
87.1300	42781.6300
87.1400	43637.1300
87.1500	43592.1325
87.1600	42718.9775
87.1700	42172.5300
87.1800	42483.1800
87.1900	42818.8800
87.2000	42576.4875
87.2100	42539.3175
87.2200	42616.1050
87.2300	43042.5775
87.2400	43232.6725
87.2500	42939.4375
87.2600	42458.0350
87.2700	41884.5850
87.2800	42295.4075
87.2900	42682.2350
87.3000	42305.8075
87.3100	41900.0000
87.3200	42116.1150
87.3300	42581.7425
87.3400	43197.5500
87.3500	43143.9475
87.3600	42542.8550
87.3700	43217.8725
87.3800	43171.5550
87.3900	42123.7025
87.4000	41845.6600
87.4100	42850.1700
87.4200	43090.1900
87.4300	43086.6300
87.4400	42879.8850
87.4500	42843.7875
87.4600	42373.8750
87.4700	42392.1425
87.4800	42770.0775
87.4900	42670.5575
87.5000	42543.3875
87.5100	42645.6050
87.5200	42902.4175
87.5300	42835.6900
87.5400	42533.3325
87.5500	42309.8875
87.5600	42307.9875
87.5700	42564.5475
87.5800	42032.1425
87.5900	42196.5925
87.6000	43177.4600
87.6100	43514.4200
87.6200	43057.8750
87.6300	43037.3325
87.6400	42588.3800
87.6500	42121.0800
87.6600	42216.6900
87.6700	42902.6125
87.6800	42780.4700
87.6900	42230.6300
87.7000	42245.1400
87.7100	42284.4650
87.7200	42413.4250
87.7300	42809.2000
87.7400	42932.0125
87.7500	42574.5150
87.7600	42280.4925
87.7700	42471.9375
87.7800	42183.0375
87.7900	42247.5600
87.8000	42407.5300
87.8100	41646.8900
87.8200	42003.8850
87.8300	42423.0050
87.8400	42591.5825
87.8500	42761.5025
87.8600	42667.1675
87.8700	42731.0875
87.8800	42825.9075
87.8900	43045.9075
87.9000	42966.2175
87.9100	42674.6150
87.9200	42954.9900
87.9300	43710.4000
87.9400	43229.6000
87.9500	42471.1175
87.9600	42121.4725
87.9700	42341.1125
87.9800	43048.7200
87.9900	42905.7900
88.0000	43148.5600
88.0100	42930.2350
88.0200	42497.4925
88.0300	43073.5250
88.0400	43141.5500
88.0500	43395.6250
88.0600	43343.0300
88.0700	43424.9950
88.0800	43599.7850
88.0900	43436.0650
88.1000	43754.9025
88.1100	43125.1550
88.1200	41696.3700
88.1300	41466.8025
88.1400	42013.8625
88.1500	42942.2525
88.1600	43002.1350
88.1700	42439.9050
88.1800	42722.9425
88.1900	43694.9000
88.2000	43532.9000
88.2100	42838.0150
88.2200	42771.6350
88.2300	42987.2400
88.2400	42911.5000
88.2500	43206.9050
88.2600	42896.4250
88.2700	42788.1125
88.2800	42748.8650
88.2900	43172.8775
88.3000	44189.2925
88.3100	44267.5625
88.3200	43459.0225
88.3300	42843.1175
88.3400	42705.9575
88.3500	42433.5750
88.3600	42812.4325
88.3700	43966.9825
88.3800	43710.3225
88.3900	42664.2600
88.4000	43112.4900
88.4100	44109.1325
88.4200	43345.6725
88.4300	43318.9150
88.4400	43241.8350
88.4500	43469.9200
88.4600	43621.8075
88.4700	43214.5375
88.4800	42448.8725
88.4900	42584.0150
88.5000	42749.1525
88.5100	42893.3400
88.5200	44035.1225
88.5300	43733.8575
88.5400	42905.6850
88.5500	42973.4200
88.5600	42975.6900
88.5700	42874.1250
88.5800	43292.2300
88.5900	43722.5450
88.6000	43586.6300
88.6100	43267.0300
88.6200	43563.1950
88.6300	44055.8425
88.6400	43764.6225
88.6500	43395.8125
88.6600	43905.1350
88.6700	43722.2700
88.6800	44294.2950
88.6900	44245.2550
88.7000	43976.6825
88.7100	44510.3350
88.7200	44678.2675
88.7300	44418.2575
88.7400	44006.9350
88.7500	44111.9225
88.7600	44575.6100
88.7700	43909.9225
88.7800	43639.9600
88.7900	44301.1350
88.8000	44749.2225
88.8100	44805.8350
88.8200	44361.6975
88.8300	43672.1725
88.8400	44325.1575
88.8500	44732.2900
88.8600	45093.7750
88.8700	46139.4350
88.8800	45360.4150
88.8900	45019.9900
88.9000	45073.6000
88.9100	45603.1350
88.9200	45711.3625
88.9300	45557.0925
88.9400	45228.8700
88.9500	45156.9725
88.9600	45131.5725
88.9700	45284.0250
88.9800	45713.0025
88.9900	46239.5375
89.0000	46237.5475
89.0100	46074.9325
89.0200	45881.8450
89.0300	46580.8275
89.0400	46734.9375
89.0500	46366.7875
89.0600	46492.3750
89.0700	47480.6350
89.0800	47302.4000
89.0900	47062.8275
89.1000	47277.5725
89.1100	47759.4550
89.1200	47297.5925
89.1300	46977.9475
89.1400	47839.9600
89.1500	49090.9200
89.1600	49182.6775
89.1700	48572.2625
89.1800	49401.2525
89.1900	49891.7700
89.2000	50000.1000
89.2100	49926.6900
89.2200	49712.8175
89.2300	50469.0375
89.2400	51037.9750
89.2500	51250.9325
89.2600	51489.5675
89.2700	51780.7475
89.2800	52481.4600
89.2900	53220.0625
89.3000	53553.8925
89.3100	53420.3225
89.3200	53637.7200
89.3300	53946.3100
89.3400	55772.8350
89.3500	56552.6800
89.3600	55679.0375
89.3700	55586.3475
89.3800	57373.5100
89.3900	58083.4125
89.4000	57543.3925
89.4100	58211.7850
89.4200	59953.7450
89.4300	61176.1600
89.4400	60940.1475
89.4500	61636.7600
89.4600	62712.1900
89.4700	63844.5075
89.4800	64730.7925
89.4900	65151.8575
89.5000	66480.1350
89.5100	68114.7600
89.5200	70131.2900
89.5300	70602.0575
89.5400	71426.6600
89.5500	72655.8125
89.5600	74580.5625
89.5700	76524.8025
89.5800	78439.1050
89.5900	79037.8125
89.6000	80775.8075
89.6100	83685.7925
89.6200	85651.0225
89.6300	87992.0350
89.6400	91630.6575
89.6500	94786.1250
89.6600	97365.6400
89.6700	100670.2350
89.6800	103880.3850
89.6900	107497.6900
89.7000	111966.7675
89.7100	117474.8350
89.7200	121848.7500
89.7300	126678.4300
89.7400	130679.5900
89.7500	135734.8200
89.7600	142227.9700
89.7700	147885.1675
89.7800	153958.2700
89.7900	159352.0700
89.8000	167731.6175
89.8100	175006.6425
89.8200	179686.5225
89.8300	182764.2675
89.8400	186234.7325
89.8500	188253.1725
89.8600	188327.0400
89.8700	186622.7700
89.8800	182837.7050
89.8900	179707.4200
89.9000	174966.2300
89.9100	168931.5825
89.9200	164121.2600
89.9300	159482.9450
89.9400	155275.3500
89.9500	149813.8950
89.9600	146822.4600
89.9700	142254.7275
89.9800	139625.3100
89.9900	138894.4550
90.0000	137062.3650
90.0100	134954.3225
90.0200	132893.5225
90.0300	133256.3550
90.0400	132405.0900
90.0500	131056.6550
90.0600	132091.6850
90.0700	134851.1450
90.0800	135237.4750
90.0900	134020.1400
90.1000	134416.7175
90.1100	135634.8900
90.1200	136146.6975
90.1300	135398.3350
90.1400	133224.6100
90.1500	132846.1025
90.1600	130543.1600
90.1700	125988.9825
90.1800	121263.2275
90.1900	118693.0450
90.2000	114288.0300
90.2100	109577.2350
90.2200	105606.5675
90.2300	100905.1825
90.2400	97853.4300
90.2500	96416.7925
90.2600	92602.0200
90.2700	89901.9700
90.2800	87129.5375
90.2900	83439.0150
90.3000	81580.2150
90.3100	79076.7425
90.3200	77329.2525
90.3300	75252.8475
90.3400	74625.3975
90.3500	72444.3400
90.3600	69562.0900
90.3700	68697.9700
90.3800	68140.7900
90.3900	67629.9000
90.4000	65668.7575
90.4100	63556.5125
90.4200	62143.8075
90.4300	62067.0975
90.4400	61091.8575
90.4500	60641.1900
90.4600	60738.2600
90.4700	60078.2275
90.4800	58910.0400
90.4900	57679.9050
90.5000	56180.5025
90.5100	55525.5525
90.5200	55495.4525
90.5300	54162.4775
90.5400	54220.9400
90.5500	53645.9675
90.5600	52975.9475
90.5700	52762.0075
90.5800	53104.4250
90.5900	52214.9100
90.6000	50957.4350
90.6100	50933.3325
90.6200	50671.4250
90.6300	51008.0450
90.6400	49469.7475
90.6500	49528.3775
90.6600	49966.6675
90.6700	49744.7725
90.6800	48635.4875
90.6900	47653.2275
90.7000	47566.3650
90.7100	48253.2275
90.7200	48402.7200
90.7300	48278.3525
90.7400	46915.4950
90.7500	48073.2050
90.7600	48282.4350
90.7700	48711.9600
90.7800	47082.5150
90.7900	46129.8500
90.8000	47347.3975
90.8100	47135.4750
90.8200	46545.0750
90.8300	46491.3375
90.8400	46798.0800
90.8500	46058.5500
90.8600	45804.9075
90.8700	46302.9625
90.8800	45721.1650
90.8900	44998.0250
90.9000	45130.2500
90.9100	46149.9300
90.9200	46283.1800
90.9300	45210.2125
90.9400	45094.3125
90.9500	45387.9275
90.9600	45404.6625
90.9700	44908.3350
90.9800	44212.6200
90.9900	44262.7725
91.0000	45452.8025
91.0100	44673.2900
91.0200	44437.6675
91.0300	44052.1150
91.0400	44598.2775
91.0500	44281.7975
91.0600	44602.6525
91.0700	44218.8525
91.0800	43876.6300
91.0900	44126.4575
91.1000	44247.4350
91.1100	44004.4350
91.1200	44932.7375
91.1300	45128.1600
91.1400	43567.3725
91.1500	43122.2775
91.1600	44471.7775
91.1700	44191.8350
91.1800	44508.9225
91.1900	43432.9925
91.2000	43823.4450
91.2100	44645.4975
91.2200	45012.3575
91.2300	43928.6900
91.2400	43862.9775
91.2500	44355.8350
91.2600	43473.5000
91.2700	43662.0050
91.2800	43600.4375
91.2900	43882.5250
91.3000	43908.7750
91.3100	43628.8175
91.3200	43728.5600
91.3300	43303.4975
91.3400	42641.3625
91.3500	43142.0375
91.3600	44603.8850
91.3700	44255.6350
91.3800	43730.7950
91.3900	43706.5575
91.4000	43738.0525
91.4100	44193.2650
91.4200	43814.6150
91.4300	43128.6375
91.4400	44021.5825
91.4500	43214.5100
91.4600	42948.7750
91.4700	43816.4975
91.4800	44278.8300
91.4900	43598.0200
91.5000	43730.5275
91.5100	43438.1650
91.5200	43576.1750
91.5300	43581.2875
91.5400	43384.3775
91.5500	44027.3775
91.5600	43601.9825
91.5700	43823.3725
91.5800	44490.2575
91.5900	44409.3125
91.6000	43642.4750
91.6100	43688.6325
91.6200	43612.1425
91.6300	43592.3350
91.6400	43602.9775
91.6500	43288.8625
91.6600	43223.3150
91.6700	43220.3650
91.6800	42855.2525
91.6900	42644.1850
91.7000	43800.9400
91.7100	43126.0850
91.7200	44490.3825
91.7300	44091.0625
91.7400	43339.3775
91.7500	43306.8175
91.7600	43413.0925
91.7700	42337.8475
91.7800	43145.6650
91.7900	43656.5825
91.8000	43245.1425
91.8100	42626.7675
91.8200	43439.8050
91.8300	42778.7975
91.8400	42912.9075
91.8500	43263.9925
91.8600	43336.8525
91.8700	43079.1175
91.8800	42778.3850
91.8900	42604.9450
91.9000	42485.5925
91.9100	42333.0250
91.9200	42974.3450
91.9300	43058.1400
91.9400	43305.0075
91.9500	43614.5500
91.9600	42688.9550
91.9700	42742.6475
91.9800	42812.9625
91.9900	42834.8575
92.0000	43279.2625
92.0100	43465.7750
92.0200	43069.8700
92.0300	43294.3625
92.0400	43689.4100
92.0500	42743.6250
92.0600	42474.2700
92.0700	41926.0775
92.0800	42711.4500
92.0900	42545.7475
92.1000	41630.4275
92.1100	42829.7500
92.1200	43325.7475
92.1300	42826.7625
92.1400	42923.3525
92.1500	43009.8950
92.1600	43241.7550
92.1700	43086.4225
92.1800	42371.1450
92.1900	42594.1275
92.2000	42878.8750
92.2100	43063.9800
92.2200	42254.7450
92.2300	42482.1950
92.2400	44161.5950
92.2500	43469.7625
92.2600	43519.9850
92.2700	43670.8825
92.2800	43246.9675
92.2900	43571.0550
92.3000	43750.4925
92.3100	43416.6675
92.3200	43415.1950
92.3300	43332.8600
92.3400	42633.3325
92.3500	42673.5825
92.3600	43090.0150
92.3700	42976.2575
92.3800	42904.2125
92.3900	42899.8425
92.4000	42426.0250
92.4100	43283.1225
92.4200	43348.3225
92.4300	41991.0300
92.4400	41654.4975
92.4500	41203.6825
92.4600	42104.8625
92.4700	43163.3575
92.4800	43454.5325
92.4900	42787.2600
92.5000	43610.4275
92.5100	43286.6525
92.5200	42727.9225
92.5300	42838.1500
92.5400	42495.6225
92.5500	42688.9800
92.5600	43174.8825
92.5700	43088.2000
92.5800	43359.5525
92.5900	43206.7600
92.6000	42418.9950
92.6100	42436.1650
92.6200	42243.1475
92.6300	42195.2550
92.6400	42853.6450
92.6500	43336.7025
92.6600	42960.6275
92.6700	43523.4800
92.6800	42680.6750
92.6900	42879.0675
92.7000	42838.8425
92.7100	43129.0350
92.7200	42559.4250
92.7300	42490.9550
92.7400	43146.0500
92.7500	43559.9000
92.7600	42914.4875
92.7700	42608.8175
92.7800	42479.4525
92.7900	42395.5500
92.8000	42082.2750
92.8100	42646.7025
92.8200	43138.8625
92.8300	42888.5325
92.8400	41854.1900
92.8500	42223.8375
92.8600	42343.8000
92.8700	42243.8350
92.8800	42441.1150
92.8900	42534.6500
92.9000	41648.5175
92.9100	41960.8250
92.9200	42500.6075
92.9300	42830.0850
92.9400	42749.0300
92.9500	42386.5500
92.9600	42093.2450
92.9700	41655.9500
92.9800	42502.3800
92.9900	43214.0275
93.0000	42469.2150
93.0100	42879.6900
93.0200	42838.7875
93.0300	43670.9750
93.0400	43029.9200
93.0500	43327.1475
93.0600	43171.8250
93.0700	42911.3325
93.0800	43166.9275
93.0900	42755.0400
93.1000	42440.6025
93.1100	41775.2025
93.1200	41566.6675
93.1300	41552.7525
93.1400	41190.4700
93.1500	41414.8975
93.1600	42299.9900
93.1700	42776.8225
93.1800	43070.5450
93.1900	43182.7900
93.2000	43131.9775
93.2100	42118.9350
93.2200	43221.8000
93.2300	43364.7100
93.2400	42790.8350
93.2500	43583.8175
93.2600	43573.9800
93.2700	42684.2600
93.2800	42694.4700
93.2900	41920.3775
93.3000	42670.9950
93.3100	42820.6450
93.3200	42346.1350
93.3300	42891.5100
93.3400	44537.9725
93.3500	43348.0850
93.3600	43290.1775
93.3700	44321.3900
93.3800	44512.8375
93.3900	43584.1850
93.4000	44406.6575
93.4100	43900.8025
93.4200	43110.6750
93.4300	43659.0625
93.4400	43238.8175
93.4500	42625.7700
93.4600	43140.6600
93.4700	42580.1525
93.4800	42386.3950
93.4900	42583.8250
93.5000	42622.3250
93.5100	43013.5025
93.5200	42780.5200
93.5300	42568.3200
93.5400	42712.2175
93.5500	43737.0800
93.5600	44052.6225
93.5700	42741.0875
93.5800	41865.2400
93.5900	41719.0500
93.6000	42000.3400
93.6100	44015.3675
93.6200	43843.7425
93.6300	42985.6600
93.6400	43334.4475
93.6500	43513.2700
93.6600	42895.8825
93.6700	42069.3625
93.6800	42689.5525
93.6900	44315.1000
93.7000	43835.2975
93.7100	44563.0375
93.7200	42848.9900
93.7300	42199.7025
93.7400	41900.0725
93.7500	42066.6450
93.7600	42716.2200
93.7700	42300.5200
93.7800	41667.8075
93.7900	43063.3675
93.8000	42136.0500
93.8100	42399.0750
93.8200	41536.8150
93.8300	42512.1750
93.8400	44108.4775
93.8500	43950.9450
93.8600	43138.4100
93.8700	42140.0975
93.8800	42944.0300
93.8900	42619.2850
93.9000	42054.7600
93.9100	42116.0700
93.9200	41373.7800
93.9300	42290.6450
93.9400	42794.7175
93.9500	42997.7800
93.9600	42884.6925
93.9700	42224.7850
93.9800	42463.4875
93.9900	42170.6400
94.0000	42972.0800
94.0100	43673.3150
94.0200	43338.5275
94.0300	42053.3175
94.0400	42705.8000
94.0500	43077.3100
94.0600	42853.9575
94.0700	41720.1050
94.0800	41863.6650
94.0900	42864.4950
94.1000	43177.6175
94.1100	44000.3550
94.1200	42857.1100
94.1300	42670.1025
94.1400	42617.7225
94.1500	43546.1025
94.1600	42702.9100
94.1700	42927.6650
94.1800	42070.4850
94.1900	41610.6650
94.2000	43275.1025
94.2100	43690.5225
94.2200	43846.2150
94.2300	42989.4025
94.2400	43258.7925
94.2500	43688.4075
94.2600	43424.3875
94.2700	43011.5650
94.2800	43113.3700
94.2900	43537.5375
94.3000	42708.6900
94.3100	43265.4800
94.3200	43800.5325
94.3300	43606.6625
94.3400	43713.0225
94.3500	43377.7725
94.3600	42608.5775
94.3700	42857.3975
94.3800	43140.5925
94.3900	43455.9975
94.4000	43450.5700
94.4100	43884.4000
94.4200	44366.3450
94.4300	44319.0425
94.4400	43577.6875
94.4500	43903.2475
94.4600	45200.5650
94.4700	45346.2450
94.4800	44997.2775
94.4900	44454.5125
94.5000	43968.8400
94.5100	43837.9375
94.5200	44617.3950
94.5300	44282.1525
94.5400	44250.6800
94.5500	44265.9775
94.5600	43611.8975
94.5700	44732.6150
94.5800	44799.2875
94.5900	45182.7225
94.6000	46937.3625
94.6100	46220.0950
94.6200	45275.6775
94.6300	46824.9500
94.6400	47663.6100
94.6500	48192.9300
94.6600	46198.2025
94.6700	45655.1950
94.6800	46744.8175
94.6900	47291.9975
94.7000	47507.0275
94.7100	48277.7525
94.7200	49441.9125
94.7300	49579.2050
94.7400	49963.3425
94.7500	49445.2375
94.7600	48388.4275
94.7700	49629.8950
94.7800	51059.1825
94.7900	50232.8950
94.8000	50341.2325
94.8100	51517.9200
94.8200	52025.0475
94.8300	53216.8575
94.8400	54260.5275
94.8500	53261.1450
94.8600	54192.0575
94.8700	54612.0175
94.8800	56584.2025
94.8900	59766.5275
94.9000	59619.9050
94.9100	60762.6725
94.9200	62089.7175
94.9300	62731.7900
94.9400	65339.9850
94.9500	68244.7125
94.9600	69639.4875
94.9700	71581.4375
94.9800	73939.8850
94.9900	76150.0225
95.0000	78317.8275
95.0100	81688.1425
95.0200	85574.5700
95.0300	88286.1700
95.0400	90840.3325
95.0500	90796.9875
95.0600	92375.5325
95.0700	91609.5550
95.0800	90941.7325
95.0900	90775.2800
95.1000	89597.9050
95.1100	86510.3150
95.1200	83217.0500
95.1300	80478.6350
95.1400	77484.0875
95.1500	76288.0625
95.1600	74584.4725
95.1700	71685.3075
95.1800	69138.0075
95.1900	69603.2175
95.2000	68299.8200
95.2100	67517.4275
95.2200	66458.7275
95.2300	65856.3175
95.2400	65584.2525
95.2500	65055.5600
95.2600	65759.7975
95.2700	67410.6675
95.2800	66960.9575
95.2900	66947.5925
95.3000	68001.1025
95.3100	67836.1125
95.3200	67909.3375
95.3300	69074.6100
95.3400	72129.8500
95.3500	72289.5300
95.3600	72098.2775
95.3700	71913.7650
95.3800	71437.7150
95.3900	70722.2425
95.4000	68711.1600
95.4100	68026.6775
95.4200	67752.5425
95.4300	65580.1025
95.4400	65553.7450
95.4500	63123.0475
95.4600	61057.7500
95.4700	59594.6350
95.4800	58623.6475
95.4900	57276.2950
95.5000	56322.9550
95.5100	56142.6575
95.5200	53941.2925
95.5300	52493.4825
95.5400	52674.3725
95.5500	52470.3150
95.5600	50567.2700
95.5700	50874.3375
95.5800	51008.4400
95.5900	49242.9925
95.6000	49037.4800
95.6100	50057.0550
95.6200	48103.2775
95.6300	48313.6525
95.6400	48304.2100
95.6500	47521.8425
95.6600	46900.9050
95.6700	46179.1150
95.6800	45674.6450
95.6900	46928.4650
95.7000	46349.3450
95.7100	47014.2025
95.7200	46322.2725
95.7300	46097.8400
95.7400	46174.6000
95.7500	46259.3625
95.7600	46585.8800
95.7700	45735.3225
95.7800	45346.1900
95.7900	44861.1025
95.8000	43283.4400
95.8100	43482.3700
95.8200	44184.1675
95.8300	44098.3450
95.8400	44083.3325
95.8500	44280.3575
95.8600	44618.1650
95.8700	45301.2725
95.8800	44836.7300
95.8900	45403.9175
95.9000	45587.7175
95.9100	44843.6725
95.9200	42574.0075
95.9300	42183.7125
95.9400	43677.8950
95.9500	44785.1100
95.9600	43206.9150
95.9700	42927.6450
95.9800	44410.9250
95.9900	44234.7125
96.0000	44230.1675
96.0100	44323.8100
96.0200	43805.7050
96.0300	43930.8450
96.0400	42970.7125
96.0500	43002.2200
96.0600	43046.7800
96.0700	41996.3275
96.0800	42425.0600
96.0900	43250.5525
96.1000	43468.6850
96.1100	43603.6100
96.1200	43827.0900
96.1300	44240.6750
96.1400	43712.5125
96.1500	43259.5500
96.1600	42466.0200
96.1700	42983.6800
96.1800	43065.0050
96.1900	42001.6575
96.2000	43322.9400
96.2100	43528.3075
96.2200	42993.7850
96.2300	42453.8675
96.2400	42459.9175
96.2500	42751.1925
96.2600	43546.8475
96.2700	42795.1925
96.2800	42969.3275
96.2900	43089.7525
96.3000	42800.9075
96.3100	42377.9525
96.3200	42467.8525
96.3300	42304.0225
96.3400	43582.9900
96.3500	43345.0325
96.3600	41717.3475
96.3700	41204.9450
96.3800	42091.8850
96.3900	42319.3525
96.4000	42900.1075
96.4100	42325.4825
96.4200	42205.2775
96.4300	43645.6525
96.4400	43682.5675
96.4500	42460.0850
96.4600	41795.4350
96.4700	41852.4425
96.4800	41688.0475
96.4900	41860.1225
96.5000	42731.3500
96.5100	42669.7225
96.5200	42962.2725
96.5300	41825.5450
96.5400	42456.2050
96.5500	42847.1875
96.5600	41991.9875
96.5700	42328.9000
96.5800	43407.8900
96.5900	43548.1775
96.6000	42941.4950
96.6100	43356.3250
96.6200	43327.6600
96.6300	42352.6400
96.6400	42856.1000
96.6500	42977.8075
96.6600	43931.8725
96.6700	43798.1025
96.6800	44225.9075
96.6900	43942.6850
96.7000	42863.4750
96.7100	43754.8225
96.7200	43276.4975
96.7300	43111.2150
96.7400	43247.9425
96.7500	43887.8925
96.7600	41940.7325
96.7700	42392.9950
96.7800	42616.3650
96.7900	42470.7725
96.8000	42243.1500
96.8100	42083.7200
96.8200	42598.3425
96.8300	42947.2150
96.8400	42082.8150
96.8500	42527.5275
96.8600	42467.1925
96.8700	42317.2200
96.8800	42904.7650
96.8900	42821.1125
96.9000	42711.5350
96.9100	41786.0350
96.9200	42860.4775
96.9300	42309.3650
96.9400	41833.6225
96.9500	43197.3750
96.9600	42897.3525
96.9700	41714.3250
96.9800	42273.2725
96.9900	42454.9750
97.0000	42025.2100
97.0100	42511.0275
97.0200	42671.5900
97.0300	42492.1450
97.0400	42246.1050
97.0500	41922.6400
97.0600	41956.8250
97.0700	41937.2750
97.0800	42197.8100
97.0900	42365.5475
97.1000	42853.3400
97.1100	43004.7775
97.1200	42355.9575
97.1300	42442.8250
97.1400	42129.0925
97.1500	42684.9900
97.1600	42311.8350
97.1700	41633.8850
97.1800	41887.3375
97.1900	42138.6325
97.2000	42489.2250
97.2100	42899.8150
97.2200	42202.5050
97.2300	42349.1225
97.2400	42720.3250
97.2500	42034.1975
97.2600	42065.1550
97.2700	42610.5375
97.2800	42302.6375
97.2900	42045.0425
97.3000	43070.5575
97.3100	42894.6975
97.3200	41898.8775
97.3300	42030.0125
97.3400	42344.5975
97.3500	42734.3500
97.3600	43470.6350
97.3700	41987.5825
97.3800	43257.7925
97.3900	43247.4175
97.4000	42295.9575
97.4100	42911.8900
97.4200	43162.7675
97.4300	42365.2950
97.4400	42688.1700
97.4500	43012.8625
97.4600	42159.3175
97.4700	42675.7000
97.4800	43219.1775
97.4900	42290.8725
97.5000	41595.4700
97.5100	42698.5250
97.5200	42268.5250
97.5300	41847.8375
97.5400	42106.2800
97.5500	42164.5825
97.5600	42064.6025
97.5700	42166.6300
97.5800	41600.2625
97.5900	41851.8875
97.6000	43503.0125
97.6100	42684.2275
97.6200	42679.0225
97.6300	42714.5675
97.6400	42308.8425
97.6500	41390.7650
97.6600	42824.7425
97.6700	43195.5950
97.6800	42823.6075
97.6900	42883.1150
97.7000	42157.7400
97.7100	40856.7100
97.7200	41570.9175
97.7300	41423.5725
97.7400	42619.8300
97.7500	43658.1725
97.7600	42968.8950
97.7700	42660.9550
97.7800	42473.3925
97.7900	42566.3075
97.8000	41841.9600
97.8100	42256.5975
97.8200	42551.3350
97.8300	42641.4600
97.8400	42606.4100
97.8500	43137.5575
97.8600	42127.1450
97.8700	41835.9375
97.8800	41802.1425
97.8900	42366.3675
97.9000	42450.0000
97.9100	41796.6375
97.9200	41685.4825
97.9300	42409.1400
97.9400	42632.7825
97.9500	42432.3025
97.9600	42646.6975
97.9700	42494.7000
97.9800	42278.0525
97.9900	41669.7075
98.0000	41597.8400
98.0100	42209.1875
98.0200	41966.4300
98.0300	41902.1650
98.0400	42625.0150
98.0500	43023.3125
98.0600	42921.6900
98.0700	42755.0375
98.0800	43081.2100
98.0900	43017.3850
98.1000	42942.0300
98.1100	42527.5850
98.1200	42901.3575
98.1300	43227.4575
98.1400	42933.4625
98.1500	43245.4825
98.1600	42735.0975
98.1700	42534.1325
98.1800	41908.4100
98.1900	41280.8675
98.2000	41504.0775
98.2100	43272.9675
98.2200	42346.1750
98.2300	41804.7575
98.2400	41807.9000
98.2500	41889.0375
98.2600	41986.8375
98.2700	42665.7075
98.2800	43027.1400
98.2900	42589.1650
98.3000	42617.9475
98.3100	42835.8800
98.3200	41854.0100
98.3300	42524.5325
98.3400	42592.1425
98.3500	42221.7475
98.3600	42947.6375
98.3700	41765.1375
98.3800	42795.8050
98.3900	43099.0100
98.4000	41309.3525
98.4100	42001.9900
98.4200	42453.5900
98.4300	42875.8475
98.4400	42412.9625
98.4500	42477.8725
98.4600	42413.2825
98.4700	42457.8075
98.4800	43348.1900
98.4900	42948.6725
98.5000	41927.4525
98.5100	41581.0525
98.5200	41723.3725
98.5300	42559.0300
98.5400	43160.0550
98.5500	43074.4350
98.5600	43237.7800
98.5700	42356.7100
98.5800	41638.9475
98.5900	42315.4375
98.6000	41971.2075
98.6100	43026.3750
98.6200	42911.2000
98.6300	42086.9475
98.6400	41706.7725
98.6500	42893.8825
98.6600	42852.3400
98.6700	43206.4500
98.6800	42285.0350
98.6900	42320.9900
98.7000	42869.6400
98.7100	42401.5150
98.7200	41667.1750
98.7300	41826.4525
98.7400	41982.1225
98.7500	41350.5925
98.7600	42418.8875
98.7700	42931.8925
98.7800	43214.2050
98.7900	42239.9725
98.8000	42833.6100
98.8100	42329.6025
98.8200	41887.0775
98.8300	42208.4300
98.8400	41617.4850
98.8500	42338.9325
98.8600	42336.8400
98.8700	42619.5850
98.8800	42205.0925
98.8900	42522.7750
98.9000	42439.1000
98.9100	42185.9025
98.9200	42236.5350
98.9300	41759.6550
98.9400	42043.8700
98.9500	42676.8425
98.9600	42391.7300
98.9700	42275.6525
98.9800	42973.2375
98.9900	43270.7850
99.0000	43069.2950
99.0100	42917.9850
99.0200	41732.1175
99.0300	41867.1950
99.0400	42565.4575
99.0500	41844.8825
99.0600	42365.4275
99.0700	42711.7500
99.0800	42476.0900
99.0900	43096.4675
99.1000	43589.2225
99.1100	42381.4450
99.1200	41707.6350
99.1300	41172.0600
99.1400	42642.3575
99.1500	43272.5200
99.1600	42324.3500
99.1700	42166.6675
99.1800	42872.9325
99.1900	43545.4525
99.2000	42364.9775
99.2100	42166.6675
99.2200	41172.1900
99.2300	41319.3300
99.2400	42779.0750
99.2500	42870.2900
99.2600	42835.5875
99.2700	41824.5075
99.2800	41436.0800
99.2900	41155.0050
99.3000	41491.3625
99.3100	41434.7100
99.3200	42281.3325
99.3300	42200.5025
99.3400	42325.1850
99.3500	42479.6975
99.3600	42327.0725
99.3700	43135.8125
99.3800	42128.2400
99.3900	41056.5550
99.4000	42112.7225
99.4100	41665.9500
99.4200	42215.1250
99.4300	42748.9700
99.4400	43133.6900
99.4500	43356.2550
99.4600	42634.0100
99.4700	42026.7250
99.4800	42555.2200
99.4900	42376.2100
99.5000	42059.5425
99.5100	42319.2775
99.5200	43173.6275
99.5300	42968.5700
99.5400	42196.1650
99.5500	41968.0525
99.5600	41863.5400
99.5700	41950.8700
99.5800	41505.5400
99.5900	41764.7700
99.6000	42306.6175
99.6100	41965.4325
99.6200	42404.3675
99.6300	42685.0800
99.6400	42976.0575
99.6500	42180.8425
99.6600	42467.9150
99.6700	42922.4300
99.6800	42406.8900
99.6900	42835.4700
99.7000	42124.0450
99.7100	41755.0050
99.7200	42408.4225
99.7300	42574.3125
99.7400	42655.3925
99.7500	42277.5425
99.7600	41885.1875
99.7700	41790.0975
99.7800	42720.1475
99.7900	43558.4750
99.8000	43695.4925
99.8100	42359.5850
99.8200	41011.3525
99.8300	41251.3225
99.8400	42195.9000
99.8500	42909.8875
99.8600	43562.1500
99.8700	42785.1425
99.8800	42563.5125
99.8900	42146.3875
99.9000	42544.6125
99.9100	42804.0650
99.9200	42069.3125
99.9300	43031.1800
99.9400	42666.6075
99.9500	41949.0175
99.9600	42412.2450
99.9700	42500.0000
99.9800	42500.0000
99.9900	42500.0000
100.0000	42500.0000
