*FILE_COMMENT	""
*FILE_MD5	""
*FILE_MEMO	"Niフィルター"
*FILE_OPERATOR	"Administrator"
*FILE_PACKAGE_NAME	""
*FILE_PART_ID	"GeneralMeasurement"
*FILE_SAMPLE	"Si"
*FILE_SYSTEM_NAME	"MiniFlex"
*FILE_TYPE	"RAS_RAW"
*FILE_USERGROUP	"Administrators"
*FILE_VERSION	"1"
*HW_ATTACHMENT_NAME_INTERNAL	"StandardSampleHolder"
*HW_COUNTER_ID-0	"CUT0025"
*HW_COUNTER_ID-2	"CMC0020"
*HW_COUNTER_MONOCHRO_ID	"CMC0020"
*HW_COUNTER_MONOCHRO_NAME	"None"
*HW_COUNTER_MONOCHRO_NAME_INTERNAL	"None"
*HW_COUNTER_NAME_INTERNAL	"DteX100"
*HW_COUNTER_NAME-0	"DteX100"
*HW_COUNTER_NAME-1	"None"
*HW_COUNTER_NAME-2	"None"
*HW_COUNTER_PIXEL_SIZE	"0.1"
*HW_COUNTER_SELECT_NAME	"DteX100"
*HW_GONIOMETER_ID	"GON0021"
*HW_GONIOMETER_NAME	"Standard"
*HW_GONIOMETER_NAME_INTERNAL	"Standard"
*HW_GONIOMETER_RADIUS-0	"90.0"
*HW_GONIOMETER_RADIUS-1	"114.0"
*HW_GONIOMETER_RADIUS-2	"91.5"
*HW_GONIOMETER_RADIUS-3	"150.0"
*HW_GONIOMETER_RADIUS-4	"103.4"
*HW_GONIOMETER_RADIUS-5	"150.0"
*HW_GONIOMETER_RADIUS-6	"46.6"
*HW_GONIOMETER_RADIUS-7	"150.0"
*HW_I_CBO_ID	"CBO0020"
*HW_I_CBO_NAME	"No_unit"
*HW_I_CBO_NAME_INTERNAL	"No_unit"
*HW_I_MONOCHRO_NAME_INTERNAL	"Manual"
*HW_I_OPT_ID-1	"CBO0020"
*HW_I_PRIMARY_NAME_INTERNAL	"No_unit"
*HW_I_SLIT_NAME_INTERNAL	"Manual"
*HW_R_ATTENUATER_AUTOMODE	"0"
*HW_R_ATTENUATER_ID	"ATN0020"
*HW_R_ATTENUATER_NAME	"No_unit"
*HW_R_ATTENUATOR_NAME_INTERNAL	"No_unit"
*HW_R_OPT_ID-1	"RCR0023"
*HW_R_OPT_ID-4	"ATN0020"
*HW_R_ROD_ID	"RCR0023"
*HW_R_ROD_NAME	"No_unit"
*HW_R_ROD_NAME_INTERNAL	"No_unit"
*HW_R_RPS_NAME_INTERNAL	"Manual"
*HW_R_RS_NAME_INTERNAL	"Manual"
*HW_R_SS_NAME_INTERNAL	"Manual"
*HW_SAMPLE_HOLDER_NAME_INTERNAL	"None"
*HW_SAMPLE_NAME	"None"
*HW_SAMPLE_NAME_INTERNAL	"None"
*HW_SAMPLE_PLATE_NAME	"None"
*HW_SAMPLE_PLATE_NAME_INTERNAL	"None"
*HW_SAMPLE_SPACER_NAME	"None"
*HW_SAMPLE_SPACER_NAME_INTERNAL	"None"
*HW_USERINFO_CATALOG_NO	""
*HW_USERINFO_INSTRUMENT_ID	""
*HW_USERINFO_INSTRUMENT_NAME	""
*HW_USERINFO_INSTRUMENT_NO	""
*HW_USERINFO_MODEL	""
*HW_USERINFO_ORDER_NO	""
*HW_USERINFO_SERIAL_NO	""
*HW_USERINFO_VERIFY_INSTRUMENT_ID	"00-07-fe-03-07-9c"
*HW_VER_RCD_COUNTER_UNIT	"N/A"
*HW_VER_RCD_CPU	"10.1.3"
*HW_VER_RCD_FPGA	"4.0.4"
*HW_VER_RCD_GONIO_UNIT	"0.0.0"
*HW_VER_RCD_INCIDENT_UNIT	"0.0.0"
*HW_VER_RCD_RECEIVING_UNIT	"0.0.0"
*HW_VER_RCD_TYPE	"RINCII"
*HW_VER_XGC_CPU	"10.1.3"
*HW_VER_XGC_CW	"5.5.6"
*HW_VER_XGC_HV	"5.5.6"
*HW_VER_XGC_RS1	"5.5.6"
*HW_VER_XGC_RS2	"N/A"
*HW_VER_XGC_RT	"N/A"
*HW_VER_XGC_TYPE	"RINCII"
*HW_XG_CURRENT_UNIT	"mA"
*HW_XG_FOCUS	"0.4mm x 12mm"
*HW_XG_FOCUS_TYPE	"LongFineToshiba"
*HW_XG_TARGET_ATOMIC_NUMBER	"29"
*HW_XG_TARGET_NAME	"Cu"
*HW_XG_TYPE	"Hermetic"
*HW_XG_VOLTAGE_UNIT	"kV"
*HW_XG_WAVE_LENGTH_ALPHA1	"1.540593"
*HW_XG_WAVE_LENGTH_ALPHA2	"1.544414"
*HW_XG_WAVE_LENGTH_BETA	"1.392246"
*HW_XG_WAVE_LENGTH_UNIT	"Angstrom"
*MEAS_COND_AXIS_NAME_INTERNAL-0	"TwoThetaTheta"
*MEAS_COND_AXIS_NAME_INTERNAL-1	"IncidentSollerSlit"
*MEAS_COND_AXIS_NAME_INTERNAL-10	"ReceivingSlitBox1"
*MEAS_COND_AXIS_NAME_INTERNAL-11	"ReceivingSlitBox1"
*MEAS_COND_AXIS_NAME_INTERNAL-12	"Filter"
*MEAS_COND_AXIS_NAME_INTERNAL-13	"ReceivingSollerSlit"
*MEAS_COND_AXIS_NAME_INTERNAL-14	"ReceivingSlitBox2"
*MEAS_COND_AXIS_NAME_INTERNAL-15	"ReceivingSlitBox2"
*MEAS_COND_AXIS_NAME_INTERNAL-16	"ReceivingSlitBox2"
*MEAS_COND_AXIS_NAME_INTERNAL-17	"PHA"
*MEAS_COND_AXIS_NAME_INTERNAL-18	"RS3"
*MEAS_COND_AXIS_NAME_INTERNAL-19	"Target_TargetTime"
*MEAS_COND_AXIS_NAME_INTERNAL-2	"IncidentSlitBox"
*MEAS_COND_AXIS_NAME_INTERNAL-20	"Target_XrayOnTime"
*MEAS_COND_AXIS_NAME_INTERNAL-21	"Target_IG"
*MEAS_COND_AXIS_NAME_INTERNAL-22	"Target_GP"
*MEAS_COND_AXIS_NAME_INTERNAL-23	"Target_FC"
*MEAS_COND_AXIS_NAME_INTERNAL-24	"HVPS_Bias"
*MEAS_COND_AXIS_NAME_INTERNAL-25	"HVPS_HVPSTime"
*MEAS_COND_AXIS_NAME_INTERNAL-26	"HVPS_Type1Time"
*MEAS_COND_AXIS_NAME_INTERNAL-27	"HVPS_Type2Time"
*MEAS_COND_AXIS_NAME_INTERNAL-28	"HVPS_Type3Time"
*MEAS_COND_AXIS_NAME_INTERNAL-29	"CW_IERTime"
*MEAS_COND_AXIS_NAME_INTERNAL-3	"IncidentSlitBox"
*MEAS_COND_AXIS_NAME_INTERNAL-30	"CW_WaterHose"
*MEAS_COND_AXIS_NAME_INTERNAL-31	"CW_CoolingWater"
*MEAS_COND_AXIS_NAME_INTERNAL-32	"CW_ECTime"
*MEAS_COND_AXIS_NAME_INTERNAL-33	"CW_Flow1"
*MEAS_COND_AXIS_NAME_INTERNAL-34	"CW_Temperature1"
*MEAS_COND_AXIS_NAME_INTERNAL-35	"CW_Pressure1"
*MEAS_COND_AXIS_NAME_INTERNAL-36	"CW_PressureIn"
*MEAS_COND_AXIS_NAME_INTERNAL-37	"CW_PressureOut"
*MEAS_COND_AXIS_NAME_INTERNAL-38	"CW_Flow2"
*MEAS_COND_AXIS_NAME_INTERNAL-39	"CW_Temperature2"
*MEAS_COND_AXIS_NAME_INTERNAL-4	"IncidentSlitBox"
*MEAS_COND_AXIS_NAME_INTERNAL-40	"CW_Pressure2"
*MEAS_COND_AXIS_NAME_INTERNAL-41	"RE_EnclosureTemp"
*MEAS_COND_AXIS_NAME_INTERNAL-42	"RE_EnclosureHummidity"
*MEAS_COND_AXIS_NAME_INTERNAL-43	"RE_CabinetTemp"
*MEAS_COND_AXIS_NAME_INTERNAL-44	"RE_RPTemp"
*MEAS_COND_AXIS_NAME_INTERNAL-45	"RE_ShutterAXrayOnTime"
*MEAS_COND_AXIS_NAME_INTERNAL-46	"RE_ShutterATimes"
*MEAS_COND_AXIS_NAME_INTERNAL-47	"RE_ShutterAOpenCloseTime"
*MEAS_COND_AXIS_NAME_INTERNAL-48	"RE_ShutterACloseOpenTime"
*MEAS_COND_AXIS_NAME_INTERNAL-49	"RE_ShutterBXrayOnTime"
*MEAS_COND_AXIS_NAME_INTERNAL-5	"IncidentAxdSlit"
*MEAS_COND_AXIS_NAME_INTERNAL-50	"RE_ShutterBTimes"
*MEAS_COND_AXIS_NAME_INTERNAL-51	"RE_ShutterBOpenCloseTime"
*MEAS_COND_AXIS_NAME_INTERNAL-52	"RE_ShutterBCloseOpenTime"
*MEAS_COND_AXIS_NAME_INTERNAL-53	"RE_XrayWarningRamp"
*MEAS_COND_AXIS_NAME_INTERNAL-54	"RE_ShutterAInstallation"
*MEAS_COND_AXIS_NAME_INTERNAL-55	"RE_ShutterARamp"
*MEAS_COND_AXIS_NAME_INTERNAL-56	"RE_ShutterBInstallation"
*MEAS_COND_AXIS_NAME_INTERNAL-57	"RE_ShutterBRamp"
*MEAS_COND_AXIS_NAME_INTERNAL-58	"RE_ExtShutterCLS"
*MEAS_COND_AXIS_NAME_INTERNAL-59	"RE_ExtXrayOFF"
*MEAS_COND_AXIS_NAME_INTERNAL-6	"IncidentAxdSlit"
*MEAS_COND_AXIS_NAME_INTERNAL-60	"RE_ExtSafetyCircuit"
*MEAS_COND_AXIS_NAME_INTERNAL-61	"Version_CPU"
*MEAS_COND_AXIS_NAME_INTERNAL-62	"Version_RS1"
*MEAS_COND_AXIS_NAME_INTERNAL-63	"Version_RS2"
*MEAS_COND_AXIS_NAME_INTERNAL-64	"Version_HV"
*MEAS_COND_AXIS_NAME_INTERNAL-65	"Version_CW"
*MEAS_COND_AXIS_NAME_INTERNAL-66	"Version_RT"
*MEAS_COND_AXIS_NAME_INTERNAL-67	"IncidentPrimary"
*MEAS_COND_AXIS_NAME_INTERNAL-68	"IncidentMonochromator"
*MEAS_COND_AXIS_NAME_INTERNAL-69	"ReceivingOptics"
*MEAS_COND_AXIS_NAME_INTERNAL-7	"IncidentAxdSlit"
*MEAS_COND_AXIS_NAME_INTERNAL-70	"CounterMonochromatorKind"
*MEAS_COND_AXIS_NAME_INTERNAL-8	"Filter"
*MEAS_COND_AXIS_NAME_INTERNAL-9	"ReceivingSlitBox1"
*MEAS_COND_AXIS_NAME-0	"TwoThetaTheta"
*MEAS_COND_AXIS_NAME-1	"IncidentSollerSlit"
*MEAS_COND_AXIS_NAME-10	"ReceivingSlitBox1-_Axis"
*MEAS_COND_AXIS_NAME-11	"SlitSS"
*MEAS_COND_AXIS_NAME-12	"Filter"
*MEAS_COND_AXIS_NAME-13	"ReceivingSollerSlit"
*MEAS_COND_AXIS_NAME-14	"ReceivingSlitBox2"
*MEAS_COND_AXIS_NAME-15	"ReceivingSlitBox2-_Axis"
*MEAS_COND_AXIS_NAME-16	"SlitRS"
*MEAS_COND_AXIS_NAME-17	"PHA"
*MEAS_COND_AXIS_NAME-18	"RS3"
*MEAS_COND_AXIS_NAME-19	"Target_TargetTime"
*MEAS_COND_AXIS_NAME-2	"IncidentSlitBox"
*MEAS_COND_AXIS_NAME-20	"Target_XrayOnTime"
*MEAS_COND_AXIS_NAME-21	"Target_IG"
*MEAS_COND_AXIS_NAME-22	"Target_GP"
*MEAS_COND_AXIS_NAME-23	"Target_FC"
*MEAS_COND_AXIS_NAME-24	"HVPS_Bias"
*MEAS_COND_AXIS_NAME-25	"HVPS_HVPSTime"
*MEAS_COND_AXIS_NAME-26	"HVPS_Type1Time"
*MEAS_COND_AXIS_NAME-27	"HVPS_Type2Time"
*MEAS_COND_AXIS_NAME-28	"HVPS_Type3Time"
*MEAS_COND_AXIS_NAME-29	"CW_IERTime"
*MEAS_COND_AXIS_NAME-3	"IncidentSlitBox-_Axis"
*MEAS_COND_AXIS_NAME-30	"CW_WaterHose"
*MEAS_COND_AXIS_NAME-31	"CW_CoolingWater"
*MEAS_COND_AXIS_NAME-32	"CW_ECTime"
*MEAS_COND_AXIS_NAME-33	"CW_Flow1"
*MEAS_COND_AXIS_NAME-34	"CW_Temperature1"
*MEAS_COND_AXIS_NAME-35	"CW_Pressure1"
*MEAS_COND_AXIS_NAME-36	"CW_PressureIn"
*MEAS_COND_AXIS_NAME-37	"CW_PressureOut"
*MEAS_COND_AXIS_NAME-38	"CW_Flow2"
*MEAS_COND_AXIS_NAME-39	"CW_Temperature2"
*MEAS_COND_AXIS_NAME-4	"SlitDS"
*MEAS_COND_AXIS_NAME-40	"CW_Pressure2"
*MEAS_COND_AXIS_NAME-41	"RE_EnclosureTemp"
*MEAS_COND_AXIS_NAME-42	"RE_EnclosureHummidity"
*MEAS_COND_AXIS_NAME-43	"RE_CabinetTemp"
*MEAS_COND_AXIS_NAME-44	"RE_RPTemp"
*MEAS_COND_AXIS_NAME-45	"RE_ShutterAXrayOnTime"
*MEAS_COND_AXIS_NAME-46	"RE_ShutterATimes"
*MEAS_COND_AXIS_NAME-47	"RE_ShutterAOpenCloseTime"
*MEAS_COND_AXIS_NAME-48	"RE_ShutterACloseOpenTime"
*MEAS_COND_AXIS_NAME-49	"RE_ShutterBXrayOnTime"
*MEAS_COND_AXIS_NAME-5	"IncidentAxdSlit"
*MEAS_COND_AXIS_NAME-50	"RE_ShutterBTimes"
*MEAS_COND_AXIS_NAME-51	"RE_ShutterBOpenCloseTime"
*MEAS_COND_AXIS_NAME-52	"RE_ShutterBCloseOpenTime"
*MEAS_COND_AXIS_NAME-53	"RE_XrayWarningRamp"
*MEAS_COND_AXIS_NAME-54	"RE_ShutterAInstallation"
*MEAS_COND_AXIS_NAME-55	"RE_ShutterARamp"
*MEAS_COND_AXIS_NAME-56	"RE_ShutterBInstallation"
*MEAS_COND_AXIS_NAME-57	"RE_ShutterBRamp"
*MEAS_COND_AXIS_NAME-58	"RE_ExtShutterCLS"
*MEAS_COND_AXIS_NAME-59	"RE_ExtXrayOFF"
*MEAS_COND_AXIS_NAME-6	"LLS"
*MEAS_COND_AXIS_NAME-60	"RE_ExtSafetyCircuit"
*MEAS_COND_AXIS_NAME-61	"Version_CPU"
*MEAS_COND_AXIS_NAME-62	"Version_RS1"
*MEAS_COND_AXIS_NAME-63	"Version_RS2"
*MEAS_COND_AXIS_NAME-64	"Version_HV"
*MEAS_COND_AXIS_NAME-65	"Version_CW"
*MEAS_COND_AXIS_NAME-66	"Version_RT"
*MEAS_COND_AXIS_NAME-67	"IncidentPrimary"
*MEAS_COND_AXIS_NAME-68	"IncidentMonochromator"
*MEAS_COND_AXIS_NAME-69	"ReceivingOptics"
*MEAS_COND_AXIS_NAME-7	"DHLSlit"
*MEAS_COND_AXIS_NAME-70	"CounterMonochromatorKind"
*MEAS_COND_AXIS_NAME-8	"Filter"
*MEAS_COND_AXIS_NAME-9	"ReceivingSlitBox1"
*MEAS_COND_AXIS_OFFSET-0	"0"
*MEAS_COND_AXIS_OFFSET-1	"0"
*MEAS_COND_AXIS_OFFSET-10	"0"
*MEAS_COND_AXIS_OFFSET-11	"0"
*MEAS_COND_AXIS_OFFSET-12	"0"
*MEAS_COND_AXIS_OFFSET-13	"0"
*MEAS_COND_AXIS_OFFSET-14	"0"
*MEAS_COND_AXIS_OFFSET-15	"0"
*MEAS_COND_AXIS_OFFSET-16	"0"
*MEAS_COND_AXIS_OFFSET-17	"0"
*MEAS_COND_AXIS_OFFSET-18	"0"
*MEAS_COND_AXIS_OFFSET-19	"0"
*MEAS_COND_AXIS_OFFSET-2	"0"
*MEAS_COND_AXIS_OFFSET-20	"0"
*MEAS_COND_AXIS_OFFSET-21	"0"
*MEAS_COND_AXIS_OFFSET-22	"0"
*MEAS_COND_AXIS_OFFSET-23	"0"
*MEAS_COND_AXIS_OFFSET-24	"0"
*MEAS_COND_AXIS_OFFSET-25	"0"
*MEAS_COND_AXIS_OFFSET-26	"0"
*MEAS_COND_AXIS_OFFSET-27	"0"
*MEAS_COND_AXIS_OFFSET-28	"0"
*MEAS_COND_AXIS_OFFSET-29	"0"
*MEAS_COND_AXIS_OFFSET-3	"0"
*MEAS_COND_AXIS_OFFSET-30	"0"
*MEAS_COND_AXIS_OFFSET-31	"0"
*MEAS_COND_AXIS_OFFSET-32	"0"
*MEAS_COND_AXIS_OFFSET-33	"0"
*MEAS_COND_AXIS_OFFSET-34	"0"
*MEAS_COND_AXIS_OFFSET-35	"0"
*MEAS_COND_AXIS_OFFSET-36	"0"
*MEAS_COND_AXIS_OFFSET-37	"0"
*MEAS_COND_AXIS_OFFSET-38	"0"
*MEAS_COND_AXIS_OFFSET-39	"0"
*MEAS_COND_AXIS_OFFSET-4	"0"
*MEAS_COND_AXIS_OFFSET-40	"0"
*MEAS_COND_AXIS_OFFSET-41	"0"
*MEAS_COND_AXIS_OFFSET-42	"0"
*MEAS_COND_AXIS_OFFSET-43	"0"
*MEAS_COND_AXIS_OFFSET-44	"0"
*MEAS_COND_AXIS_OFFSET-45	"0"
*MEAS_COND_AXIS_OFFSET-46	"0"
*MEAS_COND_AXIS_OFFSET-47	"0"
*MEAS_COND_AXIS_OFFSET-48	"0"
*MEAS_COND_AXIS_OFFSET-49	"0"
*MEAS_COND_AXIS_OFFSET-5	"0"
*MEAS_COND_AXIS_OFFSET-50	"0"
*MEAS_COND_AXIS_OFFSET-51	"0"
*MEAS_COND_AXIS_OFFSET-52	"0"
*MEAS_COND_AXIS_OFFSET-53	"0"
*MEAS_COND_AXIS_OFFSET-54	"0"
*MEAS_COND_AXIS_OFFSET-55	"0"
*MEAS_COND_AXIS_OFFSET-56	"0"
*MEAS_COND_AXIS_OFFSET-57	"0"
*MEAS_COND_AXIS_OFFSET-58	"0"
*MEAS_COND_AXIS_OFFSET-59	"0"
*MEAS_COND_AXIS_OFFSET-6	"0"
*MEAS_COND_AXIS_OFFSET-60	"0"
*MEAS_COND_AXIS_OFFSET-61	"0"
*MEAS_COND_AXIS_OFFSET-62	"0"
*MEAS_COND_AXIS_OFFSET-63	"0"
*MEAS_COND_AXIS_OFFSET-64	"0"
*MEAS_COND_AXIS_OFFSET-65	"0"
*MEAS_COND_AXIS_OFFSET-66	"0"
*MEAS_COND_AXIS_OFFSET-67	"0"
*MEAS_COND_AXIS_OFFSET-68	"0"
*MEAS_COND_AXIS_OFFSET-69	"0"
*MEAS_COND_AXIS_OFFSET-7	"0"
*MEAS_COND_AXIS_OFFSET-70	"0"
*MEAS_COND_AXIS_OFFSET-8	"0"
*MEAS_COND_AXIS_OFFSET-9	"0"
*MEAS_COND_AXIS_POSITION-0	"12.0000"
*MEAS_COND_AXIS_POSITION-1	"Soller_slit_2.5deg"
*MEAS_COND_AXIS_POSITION-10	"8.0mm"
*MEAS_COND_AXIS_POSITION-11	"8.0mm"
*MEAS_COND_AXIS_POSITION-12	"K_beta_x1.5"
*MEAS_COND_AXIS_POSITION-13	"Soller_slit_2.5deg"
*MEAS_COND_AXIS_POSITION-14	"Open"
*MEAS_COND_AXIS_POSITION-15	"Open"
*MEAS_COND_AXIS_POSITION-16	"Open"
*MEAS_COND_AXIS_POSITION-17	"36"
*MEAS_COND_AXIS_POSITION-18	"Open"
*MEAS_COND_AXIS_POSITION-19	""
*MEAS_COND_AXIS_POSITION-2	"1.25deg"
*MEAS_COND_AXIS_POSITION-20	"19.450000"
*MEAS_COND_AXIS_POSITION-21	"0.000000"
*MEAS_COND_AXIS_POSITION-22	""
*MEAS_COND_AXIS_POSITION-23	"0.000000"
*MEAS_COND_AXIS_POSITION-24	"0.000000"
*MEAS_COND_AXIS_POSITION-25	""
*MEAS_COND_AXIS_POSITION-26	""
*MEAS_COND_AXIS_POSITION-27	""
*MEAS_COND_AXIS_POSITION-28	""
*MEAS_COND_AXIS_POSITION-29	"0.000000"
*MEAS_COND_AXIS_POSITION-3	"1.25deg"
*MEAS_COND_AXIS_POSITION-30	""
*MEAS_COND_AXIS_POSITION-31	""
*MEAS_COND_AXIS_POSITION-32	""
*MEAS_COND_AXIS_POSITION-33	"4.320000"
*MEAS_COND_AXIS_POSITION-34	"0.000000"
*MEAS_COND_AXIS_POSITION-35	"0.000000"
*MEAS_COND_AXIS_POSITION-36	""
*MEAS_COND_AXIS_POSITION-37	""
*MEAS_COND_AXIS_POSITION-38	"0.000000"
*MEAS_COND_AXIS_POSITION-39	"0.000000"
*MEAS_COND_AXIS_POSITION-4	"1.25deg"
*MEAS_COND_AXIS_POSITION-40	"0.000000"
*MEAS_COND_AXIS_POSITION-41	"0.000000"
*MEAS_COND_AXIS_POSITION-42	""
*MEAS_COND_AXIS_POSITION-43	"39.000000"
*MEAS_COND_AXIS_POSITION-44	""
*MEAS_COND_AXIS_POSITION-45	""
*MEAS_COND_AXIS_POSITION-46	""
*MEAS_COND_AXIS_POSITION-47	""
*MEAS_COND_AXIS_POSITION-48	""
*MEAS_COND_AXIS_POSITION-49	""
*MEAS_COND_AXIS_POSITION-5	"10mm"
*MEAS_COND_AXIS_POSITION-50	"75.000000"
*MEAS_COND_AXIS_POSITION-51	"32.000000"
*MEAS_COND_AXIS_POSITION-52	"23.000000"
*MEAS_COND_AXIS_POSITION-53	""
*MEAS_COND_AXIS_POSITION-54	"OFF"
*MEAS_COND_AXIS_POSITION-55	""
*MEAS_COND_AXIS_POSITION-56	"ON"
*MEAS_COND_AXIS_POSITION-57	""
*MEAS_COND_AXIS_POSITION-58	""
*MEAS_COND_AXIS_POSITION-59	""
*MEAS_COND_AXIS_POSITION-6	"10mm"
*MEAS_COND_AXIS_POSITION-60	"CLOSE"
*MEAS_COND_AXIS_POSITION-61	"10.1.3"
*MEAS_COND_AXIS_POSITION-62	"5.5.6"
*MEAS_COND_AXIS_POSITION-63	"N/A"
*MEAS_COND_AXIS_POSITION-64	"5.5.6"
*MEAS_COND_AXIS_POSITION-65	"5.5.6"
*MEAS_COND_AXIS_POSITION-66	"N/A"
*MEAS_COND_AXIS_POSITION-67	"No_unit"
*MEAS_COND_AXIS_POSITION-68	"Manual"
*MEAS_COND_AXIS_POSITION-69	"No_unit"
*MEAS_COND_AXIS_POSITION-7	"10mm"
*MEAS_COND_AXIS_POSITION-70	"None"
*MEAS_COND_AXIS_POSITION-8	"None"
*MEAS_COND_AXIS_POSITION-9	"8.0mm"
*MEAS_COND_AXIS_RESOLUTION-0	"0.0025"
*MEAS_COND_AXIS_RESOLUTION-1	""
*MEAS_COND_AXIS_RESOLUTION-10	""
*MEAS_COND_AXIS_RESOLUTION-11	""
*MEAS_COND_AXIS_RESOLUTION-12	""
*MEAS_COND_AXIS_RESOLUTION-13	""
*MEAS_COND_AXIS_RESOLUTION-14	""
*MEAS_COND_AXIS_RESOLUTION-15	""
*MEAS_COND_AXIS_RESOLUTION-16	""
*MEAS_COND_AXIS_RESOLUTION-17	"1"
*MEAS_COND_AXIS_RESOLUTION-18	"0.1"
*MEAS_COND_AXIS_RESOLUTION-19	"0.01"
*MEAS_COND_AXIS_RESOLUTION-2	""
*MEAS_COND_AXIS_RESOLUTION-20	"0.010000"
*MEAS_COND_AXIS_RESOLUTION-21	"1"
*MEAS_COND_AXIS_RESOLUTION-22	"1"
*MEAS_COND_AXIS_RESOLUTION-23	"0.01"
*MEAS_COND_AXIS_RESOLUTION-24	"1"
*MEAS_COND_AXIS_RESOLUTION-25	"0.01"
*MEAS_COND_AXIS_RESOLUTION-26	"0.01"
*MEAS_COND_AXIS_RESOLUTION-27	"0.01"
*MEAS_COND_AXIS_RESOLUTION-28	"0.01"
*MEAS_COND_AXIS_RESOLUTION-29	"0.010000"
*MEAS_COND_AXIS_RESOLUTION-3	""
*MEAS_COND_AXIS_RESOLUTION-30	"0.01"
*MEAS_COND_AXIS_RESOLUTION-31	"0.01"
*MEAS_COND_AXIS_RESOLUTION-32	"1"
*MEAS_COND_AXIS_RESOLUTION-33	"0.100000"
*MEAS_COND_AXIS_RESOLUTION-34	"1.000000"
*MEAS_COND_AXIS_RESOLUTION-35	"0.010000"
*MEAS_COND_AXIS_RESOLUTION-36	"0.01"
*MEAS_COND_AXIS_RESOLUTION-37	"0.01"
*MEAS_COND_AXIS_RESOLUTION-38	"0.1"
*MEAS_COND_AXIS_RESOLUTION-39	"1"
*MEAS_COND_AXIS_RESOLUTION-4	""
*MEAS_COND_AXIS_RESOLUTION-40	"0.01"
*MEAS_COND_AXIS_RESOLUTION-41	"1.000000"
*MEAS_COND_AXIS_RESOLUTION-42	"1"
*MEAS_COND_AXIS_RESOLUTION-43	"1.000000"
*MEAS_COND_AXIS_RESOLUTION-44	"1"
*MEAS_COND_AXIS_RESOLUTION-45	"0.01"
*MEAS_COND_AXIS_RESOLUTION-46	"1"
*MEAS_COND_AXIS_RESOLUTION-47	"1"
*MEAS_COND_AXIS_RESOLUTION-48	"1"
*MEAS_COND_AXIS_RESOLUTION-49	"0.01"
*MEAS_COND_AXIS_RESOLUTION-5	""
*MEAS_COND_AXIS_RESOLUTION-50	"1.000000"
*MEAS_COND_AXIS_RESOLUTION-51	"1.000000"
*MEAS_COND_AXIS_RESOLUTION-52	"1.000000"
*MEAS_COND_AXIS_RESOLUTION-53	"-"
*MEAS_COND_AXIS_RESOLUTION-54	"-"
*MEAS_COND_AXIS_RESOLUTION-55	"-"
*MEAS_COND_AXIS_RESOLUTION-56	"1.000000"
*MEAS_COND_AXIS_RESOLUTION-57	"-"
*MEAS_COND_AXIS_RESOLUTION-58	"-"
*MEAS_COND_AXIS_RESOLUTION-59	"-"
*MEAS_COND_AXIS_RESOLUTION-6	""
*MEAS_COND_AXIS_RESOLUTION-60	"1.000000"
*MEAS_COND_AXIS_RESOLUTION-61	"1.000000"
*MEAS_COND_AXIS_RESOLUTION-62	"1.000000"
*MEAS_COND_AXIS_RESOLUTION-63	"1.000000"
*MEAS_COND_AXIS_RESOLUTION-64	"1.000000"
*MEAS_COND_AXIS_RESOLUTION-65	"1.000000"
*MEAS_COND_AXIS_RESOLUTION-66	"1.000000"
*MEAS_COND_AXIS_RESOLUTION-7	""
*MEAS_COND_AXIS_RESOLUTION-8	""
*MEAS_COND_AXIS_RESOLUTION-9	""
*MEAS_COND_AXIS_STATE-0	"Scan"
*MEAS_COND_AXIS_STATE-1	"Fixed"
*MEAS_COND_AXIS_STATE-10	"Fixed"
*MEAS_COND_AXIS_STATE-11	"Fixed"
*MEAS_COND_AXIS_STATE-12	"Fixed"
*MEAS_COND_AXIS_STATE-13	"Fixed"
*MEAS_COND_AXIS_STATE-14	"Fixed"
*MEAS_COND_AXIS_STATE-15	"Fixed"
*MEAS_COND_AXIS_STATE-16	"Fixed"
*MEAS_COND_AXIS_STATE-17	"Fixed"
*MEAS_COND_AXIS_STATE-18	"Fixed"
*MEAS_COND_AXIS_STATE-19	"Fixed"
*MEAS_COND_AXIS_STATE-2	"Fixed"
*MEAS_COND_AXIS_STATE-20	"Fixed"
*MEAS_COND_AXIS_STATE-21	"Fixed"
*MEAS_COND_AXIS_STATE-22	"Fixed"
*MEAS_COND_AXIS_STATE-23	"Fixed"
*MEAS_COND_AXIS_STATE-24	"Fixed"
*MEAS_COND_AXIS_STATE-25	"Fixed"
*MEAS_COND_AXIS_STATE-26	"Fixed"
*MEAS_COND_AXIS_STATE-27	"Fixed"
*MEAS_COND_AXIS_STATE-28	"Fixed"
*MEAS_COND_AXIS_STATE-29	"Fixed"
*MEAS_COND_AXIS_STATE-3	"Fixed"
*MEAS_COND_AXIS_STATE-30	"Fixed"
*MEAS_COND_AXIS_STATE-31	"Fixed"
*MEAS_COND_AXIS_STATE-32	"Fixed"
*MEAS_COND_AXIS_STATE-33	"Fixed"
*MEAS_COND_AXIS_STATE-34	"Fixed"
*MEAS_COND_AXIS_STATE-35	"Fixed"
*MEAS_COND_AXIS_STATE-36	"Fixed"
*MEAS_COND_AXIS_STATE-37	"Fixed"
*MEAS_COND_AXIS_STATE-38	"Fixed"
*MEAS_COND_AXIS_STATE-39	"Fixed"
*MEAS_COND_AXIS_STATE-4	"Fixed"
*MEAS_COND_AXIS_STATE-40	"Fixed"
*MEAS_COND_AXIS_STATE-41	"Fixed"
*MEAS_COND_AXIS_STATE-42	"Fixed"
*MEAS_COND_AXIS_STATE-43	"Fixed"
*MEAS_COND_AXIS_STATE-44	"Fixed"
*MEAS_COND_AXIS_STATE-45	"Fixed"
*MEAS_COND_AXIS_STATE-46	"Fixed"
*MEAS_COND_AXIS_STATE-47	"Fixed"
*MEAS_COND_AXIS_STATE-48	"Fixed"
*MEAS_COND_AXIS_STATE-49	"Fixed"
*MEAS_COND_AXIS_STATE-5	"Fixed"
*MEAS_COND_AXIS_STATE-50	"Fixed"
*MEAS_COND_AXIS_STATE-51	"Fixed"
*MEAS_COND_AXIS_STATE-52	"Fixed"
*MEAS_COND_AXIS_STATE-53	"Fixed"
*MEAS_COND_AXIS_STATE-54	"Fixed"
*MEAS_COND_AXIS_STATE-55	"Fixed"
*MEAS_COND_AXIS_STATE-56	"Fixed"
*MEAS_COND_AXIS_STATE-57	"Fixed"
*MEAS_COND_AXIS_STATE-58	"Fixed"
*MEAS_COND_AXIS_STATE-59	"Fixed"
*MEAS_COND_AXIS_STATE-6	"Fixed"
*MEAS_COND_AXIS_STATE-60	"Fixed"
*MEAS_COND_AXIS_STATE-61	"Fixed"
*MEAS_COND_AXIS_STATE-62	"Fixed"
*MEAS_COND_AXIS_STATE-63	"Fixed"
*MEAS_COND_AXIS_STATE-64	"Fixed"
*MEAS_COND_AXIS_STATE-65	"Fixed"
*MEAS_COND_AXIS_STATE-66	"Fixed"
*MEAS_COND_AXIS_STATE-7	"Fixed"
*MEAS_COND_AXIS_STATE-8	"Fixed"
*MEAS_COND_AXIS_STATE-9	"Fixed"
*MEAS_COND_AXIS_UNIT-0	"deg"
*MEAS_COND_AXIS_UNIT-1	""
*MEAS_COND_AXIS_UNIT-10	""
*MEAS_COND_AXIS_UNIT-11	""
*MEAS_COND_AXIS_UNIT-12	""
*MEAS_COND_AXIS_UNIT-13	""
*MEAS_COND_AXIS_UNIT-14	""
*MEAS_COND_AXIS_UNIT-15	""
*MEAS_COND_AXIS_UNIT-16	""
*MEAS_COND_AXIS_UNIT-17	"div"
*MEAS_COND_AXIS_UNIT-18	""
*MEAS_COND_AXIS_UNIT-19	"H"
*MEAS_COND_AXIS_UNIT-2	""
*MEAS_COND_AXIS_UNIT-20	"H"
*MEAS_COND_AXIS_UNIT-21	"mV"
*MEAS_COND_AXIS_UNIT-22	"V"
*MEAS_COND_AXIS_UNIT-23	"V"
*MEAS_COND_AXIS_UNIT-24	"V"
*MEAS_COND_AXIS_UNIT-25	"H"
*MEAS_COND_AXIS_UNIT-26	"H"
*MEAS_COND_AXIS_UNIT-27	"H"
*MEAS_COND_AXIS_UNIT-28	"H"
*MEAS_COND_AXIS_UNIT-29	"H"
*MEAS_COND_AXIS_UNIT-3	""
*MEAS_COND_AXIS_UNIT-30	"H"
*MEAS_COND_AXIS_UNIT-31	"H"
*MEAS_COND_AXIS_UNIT-32	"uS/m"
*MEAS_COND_AXIS_UNIT-33	"L/min"
*MEAS_COND_AXIS_UNIT-34	"degree"
*MEAS_COND_AXIS_UNIT-35	"MPa"
*MEAS_COND_AXIS_UNIT-36	"MPa"
*MEAS_COND_AXIS_UNIT-37	"MPa"
*MEAS_COND_AXIS_UNIT-38	"L/min"
*MEAS_COND_AXIS_UNIT-39	"C"
*MEAS_COND_AXIS_UNIT-4	""
*MEAS_COND_AXIS_UNIT-40	"MPa"
*MEAS_COND_AXIS_UNIT-41	"degree"
*MEAS_COND_AXIS_UNIT-42	"percent"
*MEAS_COND_AXIS_UNIT-43	"degree"
*MEAS_COND_AXIS_UNIT-44	"C"
*MEAS_COND_AXIS_UNIT-45	"H"
*MEAS_COND_AXIS_UNIT-46	"time"
*MEAS_COND_AXIS_UNIT-47	"msec"
*MEAS_COND_AXIS_UNIT-48	"msec"
*MEAS_COND_AXIS_UNIT-49	"H"
*MEAS_COND_AXIS_UNIT-5	""
*MEAS_COND_AXIS_UNIT-50	"times"
*MEAS_COND_AXIS_UNIT-51	"msec"
*MEAS_COND_AXIS_UNIT-52	"msec"
*MEAS_COND_AXIS_UNIT-53	"-"
*MEAS_COND_AXIS_UNIT-54	"-"
*MEAS_COND_AXIS_UNIT-55	"-"
*MEAS_COND_AXIS_UNIT-56	""
*MEAS_COND_AXIS_UNIT-57	"-"
*MEAS_COND_AXIS_UNIT-58	"-"
*MEAS_COND_AXIS_UNIT-59	"-"
*MEAS_COND_AXIS_UNIT-6	""
*MEAS_COND_AXIS_UNIT-60	""
*MEAS_COND_AXIS_UNIT-61	""
*MEAS_COND_AXIS_UNIT-62	""
*MEAS_COND_AXIS_UNIT-63	""
*MEAS_COND_AXIS_UNIT-64	""
*MEAS_COND_AXIS_UNIT-65	""
*MEAS_COND_AXIS_UNIT-66	""
*MEAS_COND_AXIS_UNIT-67	""
*MEAS_COND_AXIS_UNIT-68	""
*MEAS_COND_AXIS_UNIT-69	""
*MEAS_COND_AXIS_UNIT-7	""
*MEAS_COND_AXIS_UNIT-70	""
*MEAS_COND_AXIS_UNIT-8	""
*MEAS_COND_AXIS_UNIT-9	""
*MEAS_COND_COUNTER_ADJUSTMENTMETHOD	""
*MEAS_COND_COUNTER_CENTER_X	"0.5"
*MEAS_COND_COUNTER_CENTER_Y	"63.28"
*MEAS_COND_COUNTER_COUNTMODE	"Differential"
*MEAS_COND_COUNTER_DEADTIMECORRECTION	"Enabled"
*MEAS_COND_COUNTER_DISTANCE	"150"
*MEAS_COND_COUNTER_ENERGYMODE	"Standard"
*MEAS_COND_COUNTER_PHA_UNIT	"div"
*MEAS_COND_COUNTER_PHABASE	"36"
*MEAS_COND_COUNTER_PHAWINDOW	"26"
*MEAS_COND_COUNTER_PITCH_X	"20"
*MEAS_COND_COUNTER_PITCH_Y	"0.1"
*MEAS_COND_COUNTER_PITCHUNIT	"mm"
*MEAS_COND_COUNTER_VALIDWIDTH_X	"1"
*MEAS_COND_COUNTER_VALIDWIDTH_Y	"200"
*MEAS_COND_XG_CURRENT	"15"
*MEAS_COND_XG_VOLTAGE	"40"
*MEAS_COND_XG_WAVE_TYPE	"Ka"
*MEAS_DATA_COUNT	"9001"
*MEAS_SCAN_AXIS_X	"TwoThetaTheta"
*MEAS_SCAN_AXIS_X_INTERNAL	"TwoThetaTheta"
*MEAS_SCAN_END_TIME "04/19/2024 15:45:22"
*MEAS_SCAN_MODE	"CONTINUOUS"
*MEAS_SCAN_MODE_INTERNAL	"TDI_1D"
*MEAS_SCAN_RESOLUTION_X	"0.0025"
*MEAS_SCAN_SPEED	"10.0000"
*MEAS_SCAN_SPEED_UNIT	"deg/min"
*MEAS_SCAN_START	"10.0000"
*MEAS_SCAN_START_TIME "04/19/2024 15:35:43"
*MEAS_SCAN_STEP	"0.0100"
*MEAS_SCAN_STOP	"100.0000"
*MEAS_SCAN_UNEQUALY_SPACED	"False"
*MEAS_SCAN_UNIT_X	"deg"
*MEAS_SCAN_UNIT_Y	"cps"
#Intensity_unit=cps
#Attenuator_coefficient=1.0000
10.0000	2376.7000
10.0100	2448.3425
10.0200	2293.2900
10.0300	2393.2500
10.0400	2447.1100
10.0500	2124.8675
10.0600	2219.6025
10.0700	2400.0000
10.0800	2387.0350
10.0900	2266.6675
10.1000	2269.8825
10.1100	2288.7900
10.1200	2213.6375
10.1300	2501.5875
10.1400	2491.3550
10.1500	2246.8500
10.1600	2221.3750
10.1700	2276.0425
10.1800	2372.8900
10.1900	2424.0350
10.2000	2350.3075
10.2100	2510.5200
10.2200	2471.4225
10.2300	2655.9075
10.2400	2360.5750
10.2500	2125.7800
10.2600	2066.5450
10.2700	2263.2850
10.2800	2551.7550
10.2900	2407.4225
10.3000	2484.8125
10.3100	2502.9425
10.3200	2506.9625
10.3300	2237.7100
10.3400	2297.8525
10.3500	2458.6725
10.3600	2544.2450
10.3700	2476.1725
10.3800	2382.8900
10.3900	2195.7425
10.4000	2169.7775
10.4100	2388.9575
10.4200	2445.8025
10.4300	2397.2150
10.4400	2370.8250
10.4500	2431.8450
10.4600	2604.1200
10.4700	2639.0675
10.4800	2492.1875
10.4900	2226.1400
10.5000	2331.9875
10.5100	2339.4500
10.5200	2590.6650
10.5300	2466.0825
10.5400	2270.6275
10.5500	2304.8425
10.5600	2181.0450
10.5700	2365.6050
10.5800	2543.5300
10.5900	2443.4975
10.6000	2185.8750
10.6100	2428.1325
10.6200	2575.5375
10.6300	2671.9875
10.6400	2515.7775
10.6500	2291.2675
10.6600	2185.8150
10.6700	2219.1350
10.6800	2261.0450
10.6900	2401.2200
10.7000	2430.0200
10.7100	2590.3425
10.7200	2477.4725
10.7300	2598.7575
10.7400	2355.9825
10.7500	2229.6525
10.7600	2405.8700
10.7700	2475.1625
10.7800	2370.1475
10.7900	2401.6675
10.8000	2213.7650
10.8100	2401.1400
10.8200	2414.4000
10.8300	2391.2225
10.8400	2484.3175
10.8500	2283.3675
10.8600	2512.2400
10.8700	2446.7000
10.8800	2394.5350
10.8900	2331.8775
10.9000	2543.5225
10.9100	2457.5100
10.9200	2578.3950
10.9300	2737.2875
10.9400	2552.1050
10.9500	2571.8275
10.9600	2398.9600
10.9700	2382.3000
10.9800	2374.8700
10.9900	2503.0575
11.0000	2565.1800
11.0100	2804.0200
11.0200	2840.7075
11.0300	2430.3575
11.0400	2380.3800
11.0500	2341.1575
11.0600	2456.9550
11.0700	2296.1425
11.0800	2244.8250
11.0900	2429.5300
11.1000	2371.3875
11.1100	2451.8750
11.1200	2486.1250
11.1300	2530.5625
11.1400	2493.4150
11.1500	2649.3825
11.1600	2343.6800
11.1700	2244.9825
11.1800	2446.4425
11.1900	2378.9225
11.2000	2306.1275
11.2100	2410.5875
11.2200	2304.3100
11.2300	2379.9150
11.2400	2327.6900
11.2500	2530.8100
11.2600	2475.8250
11.2700	2328.3700
11.2800	2253.0250
11.2900	2623.5700
11.3000	2428.4925
11.3100	2339.7325
11.3200	2462.7025
11.3300	2390.4075
11.3400	2525.5425
11.3500	2371.3000
11.3600	2465.1350
11.3700	2428.0250
11.3800	2317.4175
11.3900	2345.9900
11.4000	2618.1425
11.4100	2653.6525
11.4200	2726.0975
11.4300	2555.2000
11.4400	2295.0325
11.4500	2193.8750
11.4600	2423.5900
11.4700	2200.0000
11.4800	2212.2750
11.4900	2499.3250
11.5000	2488.0100
11.5100	2612.5600
11.5200	2912.0875
11.5300	2790.9400
11.5400	2558.3450
11.5500	2353.8000
11.5600	2449.3750
11.5700	2430.8575
11.5800	2367.8900
11.5900	2392.1325
11.6000	2185.1275
11.6100	2240.4275
11.6200	2435.6700
11.6300	2498.8450
11.6400	2461.5350
11.6500	2316.6675
11.6600	2318.3350
11.6700	2366.6675
11.6800	2362.8725
11.6900	2259.0950
11.7000	2526.9975
11.7100	2333.8550
11.7200	2340.7500
11.7300	2064.6975
11.7400	2522.8375
11.7500	2183.3325
11.7600	2187.2175
11.7700	2320.9750
11.7800	2472.3250
11.7900	2654.5925
11.8000	2231.5050
11.8100	2174.3225
11.8200	2451.7725
11.8300	2508.3800
11.8400	2200.4300
11.8500	2223.8400
11.8600	2494.6075
11.8700	2284.9650
11.8800	2354.4075
11.8900	2529.3975
11.9000	2367.4400
11.9100	2397.3450
11.9200	2282.2175
11.9300	2231.1425
11.9400	2141.5675
11.9500	2512.8075
11.9600	2332.3025
11.9700	2284.0075
11.9800	2322.9250
11.9900	2630.4325
12.0000	2480.1825
12.0100	2320.9800
12.0200	2555.1150
12.0300	2831.2775
12.0400	2714.3750
12.0500	2586.4075
12.0600	2760.6775
12.0700	2398.1450
12.0800	2283.5900
12.0900	2298.2450
12.1000	2183.5775
12.1100	2204.0175
12.1200	2480.3550
12.1300	2265.5575
12.1400	2186.1250
12.1500	2398.5475
12.1600	2282.9325
12.1700	2256.3750
12.1800	2799.6275
12.1900	2765.2375
12.2000	2631.7900
12.2100	2482.1825
12.2200	2365.5675
12.2300	2249.1000
12.2400	2152.5675
12.2500	2450.5425
12.2600	2517.3075
12.2700	2598.9100
12.2800	2448.9750
12.2900	2300.7450
12.3000	2416.1700
12.3100	2332.4125
12.3200	2167.6000
12.3300	2349.6125
12.3400	2267.7200
12.3500	2515.7225
12.3600	2266.6100
12.3700	2250.7750
12.3800	2516.0075
12.3900	2250.2725
12.4000	2383.4400
12.4100	2449.7875
12.4200	2266.8950
12.4300	2583.2575
12.4400	2316.7075
12.4500	2316.6675
12.4600	2566.4100
12.4700	2533.3825
12.4800	2267.1750
12.4900	2416.3150
12.5000	2416.6675
12.5100	2250.5375
12.5200	2333.0275
12.5300	2449.5225
12.5400	2532.9550
12.5500	2516.7500
12.5600	2483.5150
12.5700	2301.0750
12.5800	2117.8225
12.5900	2215.9925
12.6000	2415.2300
12.6100	2218.1900
12.6200	2315.8600
12.6300	2548.0150
12.6400	2483.9300
12.6500	2466.8225
12.6600	2516.1750
12.6700	2351.7125
12.6800	2382.9750
12.6900	2498.6975
12.7000	2351.7400
12.7100	2350.0000
12.7200	2415.8350
12.7300	2466.0200
12.7400	2417.3350
12.7500	2482.4125
12.7600	2434.0475
12.7700	2351.2250
12.7800	2464.9000
12.7900	2614.3275
12.8000	2387.0750
12.8100	2596.4300
12.8200	2403.3850
12.8300	2285.3600
12.8400	2397.9225
12.8500	2400.0000
12.8600	2269.1625
12.8700	2086.8450
12.8800	2279.4125
12.8900	2413.9925
12.9000	2416.6675
12.9100	2367.7150
12.9200	2464.5275
12.9300	2434.0600
12.9400	2465.9250
12.9500	2173.4850
12.9600	2264.3475
12.9700	2299.2125
12.9800	2609.0425
12.9900	2616.6675
13.0000	2535.4150
13.0100	2484.6050
13.0200	2645.6875
13.0300	2439.0350
13.0400	2384.6725
13.0500	2221.2025
13.0600	2168.0500
13.0700	2166.6675
13.0800	2296.1900
13.0900	2138.1700
13.1000	2181.8600
13.1100	2102.4925
13.1200	2116.1600
13.1300	2100.5125
13.1400	2229.1625
13.1500	2088.0925
13.1600	2341.4200
13.1700	2446.7375
13.1800	2466.1150
13.1900	2321.6975
13.2000	2364.9675
13.2100	2527.5925
13.2200	2356.3975
13.2300	2350.0000
13.2400	2510.7000
13.2500	2066.9175
13.2600	2322.9325
13.2700	2397.5225
13.2800	2400.0000
13.2900	2191.5825
13.3000	2263.4575
13.3100	2474.8875
13.3200	2435.3050
13.3300	2369.3250
13.3400	2398.6550
13.3500	2479.9325
13.3600	2387.4600
13.3700	2383.3325
13.3800	2431.2250
13.3900	2560.9825
13.4000	2486.9225
13.4100	2563.0375
13.4200	2471.0650
13.4300	2450.7400
13.4400	2052.0450
13.4500	2081.0650
13.4600	2242.3625
13.4700	2250.0000
13.4800	2456.5400
13.4900	2244.3450
13.5000	2582.5275
13.5100	2647.5950
13.5200	2443.8575
13.5300	2274.8375
13.5400	2298.3500
13.5500	2236.6625
13.5600	2359.9450
13.5700	2287.5725
13.5800	2488.8800
13.5900	2389.3750
13.6000	2462.3125
13.6100	2640.3375
13.6200	2302.8275
13.6300	2157.1500
13.6400	2023.8775
13.6500	2142.7275
13.6600	2417.7475
13.6700	2386.1075
13.6800	2540.6775
13.6900	2628.6325
13.7000	2491.8625
13.7100	2420.4875
13.7200	2275.3350
13.7300	2439.3225
13.7400	2481.3775
13.7500	2295.1675
13.7600	2283.3325
13.7700	2361.6575
13.7800	2382.3250
13.7900	2352.0350
13.8000	2553.3450
13.8100	2597.9350
13.8200	2428.1100
13.8300	2572.8525
13.8400	2208.6725
13.8500	2339.3650
13.8600	2646.3125
13.8700	2775.7800
13.8800	2440.5750
13.8900	2416.6675
13.9000	2556.7450
13.9100	2271.0900
13.9200	2405.4875
13.9300	2447.7500
13.9400	2574.2675
13.9500	2536.7575
13.9600	2440.2275
13.9700	2634.9625
13.9800	2618.9950
13.9900	2585.6775
14.0000	2459.4400
14.0100	2542.8725
14.0200	2642.8250
14.0300	2526.2950
14.0400	2408.4800
14.0500	2338.2100
14.0600	2456.8525
14.0700	2543.8275
14.0800	2565.4250
14.0900	2443.3350
14.1000	2356.2900
14.1100	2257.5950
14.1200	2480.8925
14.1300	2484.6150
14.1400	2314.1850
14.1500	2346.1075
14.1600	2472.8925
14.1700	2237.6750
14.1800	2032.5175
14.1900	2032.0050
14.2000	2324.6050
14.2100	2503.2225
14.2200	2577.9250
14.2300	2613.9475
14.2400	2387.1875
14.2500	2427.8300
14.2600	2723.7100
14.2700	2551.4250
14.2800	2533.3325
14.2900	2594.3700
14.3000	2523.7425
14.3100	2288.0125
14.3200	2266.6675
14.3300	2342.8050
14.3400	2593.5175
14.3500	2464.5475
14.3600	2404.3875
14.3700	2491.1775
14.3800	2484.8125
14.3900	2377.0700
14.4000	2579.0800
14.4100	2630.3300
14.4200	2572.7075
14.4300	2354.5850
14.4400	2333.3325
14.4500	2530.0600
14.4600	2413.8750
14.4700	2656.9875
14.4800	2214.9525
14.4900	2091.1600
14.5000	2385.1975
14.5100	2461.9225
14.5200	2089.7350
14.5300	2260.9700
14.5400	2464.0700
14.5500	2528.4925
14.5600	2458.1050
14.5700	2495.1125
14.5800	2650.2950
14.5900	2426.3225
14.6000	2415.0125
14.6100	2386.6550
14.6200	2353.3375
14.6300	2664.7825
14.6400	2505.2375
14.6500	2288.6750
14.6600	2416.3225
14.6700	2627.7825
14.6800	2500.5025
14.6900	2812.0525
14.7000	2506.5250
14.7100	2377.1125
14.7200	2545.6800
14.7300	2283.3825
14.7400	2548.0350
14.7500	2717.3775
14.7600	2390.9625
14.7700	2454.1425
14.7800	2555.8850
14.7900	2403.1900
14.8000	2398.1875
14.8100	2370.3100
14.8200	2381.5050
14.8300	2457.4800
14.8400	2288.8100
14.8500	2325.9200
14.8600	2555.4125
14.8700	2657.3200
14.8800	2533.5625
14.8900	2427.9800
14.9000	2283.7075
14.9100	2488.1425
14.9200	2383.8525
14.9300	2499.4075
14.9400	2369.2575
14.9500	2467.8625
14.9600	2218.2875
14.9700	2227.4825
14.9800	2586.3400
14.9900	2471.6275
15.0000	2288.3825
15.0100	2413.5100
15.0200	2433.3325
15.0300	2315.9875
15.0400	2373.3000
15.0500	2354.0300
15.0600	2569.6575
15.0700	2717.0850
15.0800	2367.6425
15.0900	2228.9500
15.1000	2318.9475
15.1100	2231.1100
15.1200	2318.8325
15.1300	2727.1825
15.1400	2477.1750
15.1500	2418.7625
15.1600	2256.4775
15.1700	2364.3250
15.1800	2514.2500
15.1900	2475.1800
15.2000	2510.2575
15.2100	2647.3650
15.2200	2492.5000
15.2300	2408.6450
15.2400	2298.5175
15.2500	2326.8025
15.2600	2434.7025
15.2700	2478.9450
15.2800	2627.9825
15.2900	2317.4950
15.3000	2396.7025
15.3100	2445.5475
15.3200	2363.4075
15.3300	2176.9125
15.3400	2236.4950
15.3500	2206.7775
15.3600	2459.1900
15.3700	2500.0000
15.3800	2442.4675
15.3900	2375.8325
15.4000	2122.4325
15.4100	2341.7875
15.4200	2498.1350
15.4300	2459.2975
15.4400	2435.6650
15.4500	2390.3575
15.4600	2268.7925
15.4700	2264.3100
15.4800	2223.7625
15.4900	2431.0600
15.5000	2366.6750
15.5100	2292.8950
15.5200	2311.8700
15.5300	2487.7850
15.5400	2331.3950
15.5500	2114.8350
15.5600	2069.0975
15.5700	2308.5250
15.5800	2307.3450
15.5900	2371.0525
15.6000	2425.9400
15.6100	2248.8125
15.6200	2202.4800
15.6300	2285.0650
15.6400	2427.5225
15.6500	2280.0700
15.6600	2377.3750
15.6700	2456.5775
15.6800	2395.9850
15.6900	2171.4150
15.7000	2274.5300
15.7100	2441.1125
15.7200	2339.7400
15.7300	2344.8550
15.7400	2335.9125
15.7500	2262.9425
15.7600	2475.1175
15.7700	2502.6050
15.7800	2556.2125
15.7900	2454.3075
15.8000	2264.8950
15.8100	2205.2775
15.8200	2424.3200
15.8300	2298.5275
15.8400	2238.6600
15.8500	2303.3075
15.8600	2428.5600
15.8700	2463.9775
15.8800	2340.9350
15.8900	2344.5900
15.9000	2489.5350
15.9100	2516.6675
15.9200	2502.7300
15.9300	2555.7125
15.9400	2302.1850
15.9500	2347.3825
15.9600	2422.2800
15.9700	2419.4375
15.9800	2402.7800
15.9900	2247.3375
16.0000	2258.2775
16.0100	2460.7300
16.0200	2486.1475
16.0300	2386.4200
16.0400	2117.6100
16.0500	2191.1200
16.0600	2285.7650
16.0700	2382.8675
16.0800	2441.4100
16.0900	2491.3850
16.1000	2375.9225
16.1100	2226.0000
16.1200	2186.2300
16.1300	2293.4225
16.1400	2316.6675
16.1500	2426.6200
16.1600	2298.9050
16.1700	2266.6675
16.1800	2321.5425
16.1900	2607.5475
16.2000	2748.8800
16.2100	2314.7675
16.2200	2476.6900
16.2300	2451.2700
16.2400	2515.3450
16.2500	2506.0125
16.2600	2404.4375
16.2700	2369.6900
16.2800	2353.0325
16.2900	2554.3975
16.3000	2450.2025
16.3100	2389.4475
16.3200	2641.7550
16.3300	2672.8150
16.3400	2571.5775
16.3500	2617.8800
16.3600	2511.2275
16.3700	2144.3600
16.3800	2053.1150
16.3900	2320.8400
16.4000	2437.4675
16.4100	2382.3750
16.4200	2312.6000
16.4300	2313.5075
16.4400	2276.1675
16.4500	2239.6850
16.4600	2368.1600
16.4700	2373.0525
16.4800	2326.2700
16.4900	2383.9525
16.5000	2453.7950
16.5100	2399.4650
16.5200	2329.6050
16.5300	2383.7825
16.5400	2319.5100
16.5500	2246.3750
16.5600	2246.7300
16.5700	2316.9475
16.5800	2226.2875
16.5900	2266.8625
16.6000	2122.9675
16.6100	2096.6875
16.6200	2326.8950
16.6300	2543.3925
16.6400	2383.3875
16.6500	2333.3325
16.6600	2306.7075
16.6700	2393.1300
16.6800	2137.4575
16.6900	2186.2500
16.7000	2203.3875
16.7100	2292.8900
16.7200	2449.2825
16.7300	2430.3225
16.7400	2390.1775
16.7500	2303.9175
16.7600	2402.3800
16.7700	2512.6450
16.7800	2335.1800
16.7900	2534.1650
16.8000	2336.1375
16.8100	2266.6675
16.8200	2293.0175
16.8300	2365.8375
16.8400	2449.1275
16.8500	2348.3150
16.8600	2356.0925
16.8700	2484.8650
16.8800	2254.1750
16.8900	2235.7975
16.9000	2276.2150
16.9100	2244.0375
16.9200	2233.3325
16.9300	2403.3950
16.9400	2436.9275
16.9500	2237.3675
16.9600	2222.5000
16.9700	2207.2400
16.9800	2265.1925
16.9900	2231.2125
17.0000	2255.7300
17.0100	2214.6150
17.0200	2577.1225
17.0300	2462.4075
17.0400	2335.0650
17.0500	2316.6675
17.0600	2485.2725
17.0700	2611.1000
17.0800	2452.0000
17.0900	2387.0550
17.1000	2266.9175
17.1100	2297.9650
17.1200	2510.4350
17.1300	2398.8450
17.1400	2350.0000
17.1500	2169.5125
17.1600	2168.2000
17.1700	2337.8300
17.1800	2357.6000
17.1900	2285.7125
17.2000	2369.4575
17.2100	2348.6400
17.2200	2435.9850
17.2300	2466.6675
17.2400	2530.7375
17.2500	2524.3900
17.2600	2593.4475
17.2700	2360.9050
17.2800	2321.6725
17.2900	2409.9575
17.3000	2292.9500
17.3100	2224.4925
17.3200	2369.6025
17.3300	2352.9875
17.3400	2142.4225
17.3500	2235.9575
17.3600	2397.7225
17.3700	2255.5150
17.3800	2390.3875
17.3900	2437.3150
17.4000	2230.5300
17.4100	2267.9975
17.4200	2451.8925
17.4300	2297.6150
17.4400	2460.8600
17.4500	2381.7550
17.4600	2472.1850
17.4700	2440.9825
17.4800	2492.3000
17.4900	2252.1350
17.5000	2279.9575
17.5100	2404.7225
17.5200	2257.3450
17.5300	2187.4375
17.5400	2258.6525
17.5500	2157.8900
17.5600	2191.8800
17.5700	2404.5700
17.5800	2303.9300
17.5900	2174.9450
17.6000	2362.5100
17.6100	2358.3825
17.6200	2370.7825
17.6300	2370.8600
17.6400	2179.6825
17.6500	2241.2350
17.6600	2395.3650
17.6700	2234.3050
17.6800	2141.8050
17.6900	2245.1300
17.7000	2357.8125
17.7100	2420.5450
17.7200	2259.7975
17.7300	2323.8675
17.7400	2341.9100
17.7500	2518.8700
17.7600	2744.0175
17.7700	2701.1875
17.7800	2419.8125
17.7900	2407.3375
17.8000	2371.7075
17.8100	2251.4700
17.8200	2352.0500
17.8300	2289.3100
17.8400	2360.6100
17.8500	2535.0925
17.8600	2423.7925
17.8700	2280.8225
17.8800	2323.5275
17.8900	2154.0650
17.9000	2254.6525
17.9100	2279.9825
17.9200	2193.3500
17.9300	2362.0375
17.9400	2360.1225
17.9500	2174.8250
17.9600	2323.7975
17.9700	2558.2800
17.9800	2519.3350
17.9900	2556.2800
18.0000	2413.2500
18.0100	2289.3000
18.0200	2230.2725
18.0300	2119.6875
18.0400	2156.0150
18.0500	2219.6475
18.0600	2233.3325
18.0700	2172.9000
18.0800	2270.7800
18.0900	2437.3575
18.1000	2495.3925
18.1100	2415.6400
18.1200	2467.6325
18.1300	2572.2025
18.1400	2600.0000
18.1500	2551.9350
18.1600	2533.3325
18.1700	2365.3575
18.1800	2455.8625
18.1900	2528.6475
18.2000	2473.4750
18.2100	2390.1875
18.2200	2450.3425
18.2300	2471.3875
18.2400	2383.1150
18.2500	2147.2375
18.2600	2257.3600
18.2700	2285.6950
18.2800	2421.3725
18.2900	2661.7075
18.3000	2507.5625
18.3100	2297.9300
18.3200	2178.8100
18.3300	2268.5600
18.3400	2458.8325
18.3500	2398.2850
18.3600	2397.3175
18.3700	2274.8225
18.3800	2193.0450
18.3900	2336.7650
18.4000	2435.3800
18.4100	2343.9375
18.4200	2229.3450
18.4300	2400.0350
18.4400	2377.5125
18.4500	2603.5575
18.4600	2646.2275
18.4700	2651.8600
18.4800	2279.8375
18.4900	2175.2325
18.5000	2398.9725
18.5100	2389.7725
18.5200	2233.1375
18.5300	2311.7850
18.5400	2425.0075
18.5500	2589.9125
18.5600	2358.7375
18.5700	2419.5975
18.5800	2360.4100
18.5900	2323.2475
18.6000	2426.2500
18.6100	2455.0600
18.6200	2264.4525
18.6300	2264.4475
18.6400	2207.3700
18.6500	2189.8050
18.6600	2361.8500
18.6700	2433.3325
18.6800	2329.4475
18.6900	2387.1375
18.7000	2145.2125
18.7100	2074.2450
18.7200	2238.0825
18.7300	2345.9925
18.7400	2320.7100
18.7500	2368.8800
18.7600	2526.1800
18.7700	2629.1800
18.7800	2455.3000
18.7900	2400.9975
18.8000	2519.5800
18.8100	2555.2400
18.8200	2424.4150
18.8300	2469.3375
18.8400	2436.8750
18.8500	2400.0000
18.8600	2570.7125
18.8700	2559.0250
18.8800	2346.2250
18.8900	2289.3750
18.9000	2300.0000
18.9100	2413.3575
18.9200	2500.6475
18.9300	2471.3950
18.9400	2382.1475
18.9500	2429.0975
18.9600	2534.4100
18.9700	2476.4150
18.9800	2523.5125
18.9900	2521.6125
19.0000	2297.4225
19.0100	2211.2450
19.0200	2306.5575
19.0300	2271.4100
19.0400	2379.1700
19.0500	2494.8375
19.0600	2539.0675
19.0700	2550.0000
19.0800	2438.1800
19.0900	2416.8525
19.1000	2422.1700
19.1100	2260.5000
19.1200	2149.8975
19.1300	2122.1975
19.1400	2517.2550
19.1500	2572.1275
19.1600	2344.4700
19.1700	2455.3700
19.1800	2461.2700
19.1900	2294.7625
19.2000	2133.6775
19.2100	2193.9725
19.2200	2238.9450
19.2300	2222.2875
19.2400	2249.7775
19.2500	2189.4750
19.2600	2370.3700
19.2700	2505.3525
19.2800	2340.6625
19.2900	2282.9725
19.3000	2300.0000
19.3100	2267.0800
19.3200	2250.0000
19.3300	2260.9550
19.3400	2288.5575
19.3500	2278.1275
19.3600	2375.9400
19.3700	2236.8050
19.3800	2111.5150
19.3900	2383.4000
19.4000	2446.2075
19.4100	2595.8725
19.4200	2613.0200
19.4300	2219.0350
19.4400	2217.8575
19.4500	2370.8925
19.4600	2443.3450
19.4700	2336.7425
19.4800	2288.3025
19.4900	2354.0425
19.5000	2372.5350
19.5100	2474.5700
19.5200	2447.0825
19.5300	2206.1025
19.5400	2175.3400
19.5500	2420.9900
19.5600	2533.3325
19.5700	2307.8875
19.5800	2129.7025
19.5900	2110.7175
19.6000	2362.9500
19.6100	2457.2050
19.6200	2315.7475
19.6300	2282.0425
19.6400	2428.0550
19.6500	2382.7150
19.6600	2423.1975
19.6700	2515.2650
19.6800	2437.6225
19.6900	2308.9550
19.7000	2319.7475
19.7100	2371.2150
19.7200	2383.3325
19.7300	2245.6800
19.7400	2272.4625
19.7500	2470.7475
19.7600	2412.7050
19.7700	2417.7500
19.7800	2371.7825
19.7900	2369.3350
19.8000	2536.8175
19.8100	2553.5750
19.8200	2453.6300
19.8300	2301.2025
19.8400	2233.3325
19.8500	2296.2025
19.8600	2427.5550
19.8700	2420.5725
19.8800	2268.3750
19.8900	2293.9725
19.9000	2423.0250
19.9100	2372.8600
19.9200	2264.5975
19.9300	2160.5000
19.9400	2147.8525
19.9500	2145.8950
19.9600	2112.5800
19.9700	2141.4700
19.9800	2218.4600
19.9900	2167.2050
20.0000	2137.3475
20.0100	2315.2925
20.0200	2406.3450
20.0300	2327.8125
20.0400	2231.8175
20.0500	2241.1750
20.0600	2287.2350
20.0700	2505.5075
20.0800	2602.5350
20.0900	2429.4800
20.1000	2353.8275
20.1100	2366.6675
20.1200	2356.4375
20.1300	2298.9000
20.1400	2358.5625
20.1500	2243.2450
20.1600	2082.3725
20.1700	2162.0100
20.1800	2253.6800
20.1900	2317.4875
20.2000	2380.4650
20.2100	2379.7075
20.2200	2346.3950
20.2300	2272.5700
20.2400	2273.8050
20.2500	2279.7825
20.2600	2276.7650
20.2700	2283.3325
20.2800	2283.3325
20.2900	2363.9050
20.3000	2466.9775
20.3100	2449.7350
20.3200	2286.1000
20.3300	2240.1375
20.3400	2256.6425
20.3500	2199.9225
20.3600	2246.7175
20.3700	2290.0025
20.3800	2323.2850
20.3900	2320.0650
20.4000	2309.9700
20.4100	2326.6275
20.4200	2353.2350
20.4300	2436.2550
20.4400	2374.0800
20.4500	2290.0775
20.4600	2283.3325
20.4700	2233.8125
20.4800	2209.8950
20.4900	2147.4675
20.5000	2169.1325
20.5100	2315.3350
20.5200	2353.7600
20.5300	2284.0925
20.5400	2171.2900
20.5500	2126.4950
20.5600	2084.2325
20.5700	2226.5950
20.5800	2310.7950
20.5900	2302.9175
20.6000	2277.5350
20.6100	2298.8675
20.6200	2274.7475
20.6300	2155.2950
20.6400	2226.6900
20.6500	2248.5150
20.6600	2131.9125
20.6700	2180.5075
20.6800	2250.0000
20.6900	2356.6850
20.7000	2384.8875
20.7100	2195.1200
20.7200	2151.0275
20.7300	2180.6775
20.7400	2157.0150
20.7500	2140.3575
20.7600	2123.7000
20.7700	2010.8050
20.7800	1894.8750
20.7900	1943.5075
20.8000	2038.3825
20.8100	2133.7725
20.8200	2231.2175
20.8300	2352.7750
20.8400	2321.0850
20.8500	2135.4125
20.8600	2069.0800
20.8700	2169.1050
20.8800	2233.3325
20.8900	2138.2200
20.9000	2237.7025
20.9100	2385.6525
20.9200	2248.2675
20.9300	2190.1750
20.9400	2261.7275
20.9500	2113.1425
20.9600	2058.8975
20.9700	2126.1025
20.9800	2133.3325
20.9900	2189.8375
21.0000	2195.7000
21.0100	2251.2550
21.0200	2269.7200
21.0300	2158.2950
21.0400	2240.5575
21.0500	2368.7225
21.0600	2271.1150
21.0700	2183.3325
21.0800	2090.0050
21.0900	2128.5475
21.1000	2235.2950
21.1100	2277.9125
21.1200	2374.3600
21.1300	2331.1900
21.1400	2129.4075
21.1500	2163.0700
21.1600	2183.3500
21.1700	2153.6575
21.1800	2220.2875
21.1900	2139.2500
21.2000	1920.9250
21.2100	1982.4525
21.2200	2098.2650
21.2300	2037.3775
21.2400	2183.6400
21.2500	2287.4700
21.2600	2103.3900
21.2700	2129.7925
21.2800	2240.8550
21.2900	2215.0650
21.3000	2181.7500
21.3100	2203.1300
21.3200	2287.9725
21.3300	2178.6850
21.3400	2077.2625
21.3500	2072.7650
21.3600	2095.3425
21.3700	2232.9850
21.3800	2325.7175
21.3900	2188.6900
21.4000	1994.4200
21.4100	2005.5025
21.4200	2066.6675
21.4300	2039.6600
21.4400	2205.5175
21.4500	2213.9475
21.4600	2182.0475
21.4700	2302.5250
21.4800	2333.3325
21.4900	2387.0075
21.5000	2290.3550
21.5100	2184.5200
21.5200	2146.4975
21.5300	2064.3700
21.5400	2166.8050
21.5500	2212.2250
21.5600	2123.3625
21.5700	2170.9575
21.5800	2215.6125
21.5900	2111.4925
21.6000	2112.9050
21.6100	2192.1650
21.6200	2200.0000
21.6300	2147.1225
21.6400	2108.8025
21.6500	2151.8425
21.6600	2121.8425
21.6700	1996.4675
21.6800	1959.6300
21.6900	2167.2050
21.7000	2263.3625
21.7100	2121.3700
21.7200	2015.0900
21.7300	2000.7700
21.7400	2077.6250
21.7500	2107.2375
21.7600	2057.2650
21.7700	2033.3325
21.7800	2042.0025
21.7900	2067.3225
21.8000	2161.1925
21.8100	2276.5425
21.8200	2282.1375
21.8300	2181.0200
21.8400	2116.6675
21.8500	2159.6850
21.8600	2148.4350
21.8700	2117.1700
21.8800	2064.7350
21.8900	1880.0850
21.9000	1843.6700
21.9100	2019.2225
21.9200	2142.2775
21.9300	2158.1400
21.9400	2039.2700
21.9500	2094.9875
21.9600	2199.0075
21.9700	2082.0875
21.9800	2008.1875
21.9900	1983.0600
22.0000	2093.5725
22.0100	2174.4125
22.0200	2048.9200
22.0300	2008.8250
22.0400	2066.8450
22.0500	2192.6975
22.0600	2333.6125
22.0700	2249.1575
22.0800	2116.5650
22.0900	2091.6250
22.1000	2116.7925
22.1100	2099.8675
22.1200	2241.9525
22.1300	2424.9975
22.1400	2316.7475
22.1500	2349.7400
22.1600	2441.7950
22.1700	2242.3375
22.1800	2058.4675
22.1900	2041.6125
22.2000	2041.7300
22.2100	2033.3325
22.2200	2008.5825
22.2300	1991.5750
22.2400	2000.0000
22.2500	2090.4350
22.2600	2125.8500
22.2700	2025.6550
22.2800	1966.9475
22.2900	1958.1825
22.3000	2015.7075
22.3100	1911.5525
22.3200	1741.8450
22.3300	1814.7800
22.3400	2046.4325
22.3500	2102.4950
22.3600	2129.8550
22.3700	2242.3475
22.3800	2103.3125
22.3900	1959.0725
22.4000	1957.5650
22.4100	2015.6050
22.4200	2017.7675
22.4300	1951.1375
22.4400	1932.7450
22.4500	2006.2075
22.4600	2010.5275
22.4700	1933.9800
22.4800	1980.6725
22.4900	2177.8575
22.5000	2252.8150
22.5100	2119.5575
22.5200	2073.8875
22.5300	2187.4800
22.5400	2124.4725
22.5500	2084.8675
22.5600	2146.1725
22.5700	1947.1150
22.5800	1928.1875
22.5900	2080.7025
22.6000	2220.0725
22.6100	2253.6625
22.6200	2049.6100
22.6300	1954.9950
22.6400	2040.2075
22.6500	1917.7600
22.6600	1757.8275
22.6700	1883.9350
22.6800	2094.7500
22.6900	2011.7625
22.7000	1808.8775
22.7100	1916.6900
22.7200	1941.2250
22.7300	1777.8650
22.7400	1865.0900
22.7500	2125.0375
22.7600	2157.2250
22.7700	2111.7725
22.7800	2175.6225
22.7900	2174.3700
22.8000	2098.7150
22.8100	1953.9025
22.8200	1884.6525
22.8300	1943.3025
22.8400	2094.5650
22.8500	2105.5125
22.8600	1972.2550
22.8700	1922.8750
22.8800	1950.0000
22.8900	1988.0275
22.9000	2018.1425
22.9100	1908.9625
22.9200	1860.6125
22.9300	1956.0350
22.9400	2043.7925
22.9500	2199.6925
22.9600	2164.3150
22.9700	2022.5850
22.9800	2080.0750
22.9900	2041.5750
23.0000	1920.0025
23.0100	1898.3125
23.0200	1886.7475
23.0300	1879.8825
23.0400	1909.2050
23.0500	1847.8425
23.0600	1865.1875
23.0700	1996.3925
23.0800	1988.8025
23.0900	1925.9200
23.1000	1894.4600
23.1100	1911.0250
23.1200	1996.2000
23.1300	2018.5850
23.1400	1911.6325
23.1500	1939.7300
23.1600	2124.0100
23.1700	2089.3250
23.1800	2026.0075
23.1900	1994.7200
23.2000	1900.9150
23.2100	1969.8825
23.2200	2195.8125
23.2300	2109.6300
23.2400	1979.0675
23.2500	1958.6075
23.2600	1963.0575
23.2700	2059.4300
23.2800	1963.2625
23.2900	1842.7825
23.3000	1934.2550
23.3100	2073.8650
23.3200	1961.1150
23.3300	1835.8975
23.3400	1897.6725
23.3500	1837.9050
23.3600	1740.4850
23.3700	1792.8450
23.3800	1857.1300
23.3900	1888.0300
23.4000	1845.5500
23.4100	1806.8150
23.4200	1840.7800
23.4300	1726.6725
23.4400	1664.1450
23.4500	1739.8375
23.4600	1823.7200
23.4700	1833.3325
23.4800	1805.1975
23.4900	1808.8125
23.5000	1978.8975
23.5100	2042.2725
23.5200	1874.6975
23.5300	1718.8725
23.5400	1548.4550
23.5500	1583.5900
23.5600	1734.7800
23.5700	1811.1175
23.5800	1822.2525
23.5900	1804.1150
23.6000	1847.1675
23.6100	1880.4825
23.6200	1872.4100
23.6300	1833.3325
23.6400	1833.3325
23.6500	1812.7275
23.6600	1838.2025
23.6700	2005.7025
23.6800	2037.5850
23.6900	1818.0450
23.7000	1693.1800
23.7100	1751.4325
23.7200	1890.8025
23.7300	1956.7900
23.7400	2000.5700
23.7500	2043.2300
23.7600	2019.8100
23.7700	1891.9750
23.7800	1767.0425
23.7900	1836.8625
23.8000	1954.0550
23.8100	2137.0325
23.8200	2035.6925
23.8300	1826.9025
23.8400	1876.5675
23.8500	1743.2575
23.8600	1673.3150
23.8700	1846.4500
23.8800	1943.5800
23.8900	1879.7750
23.9000	2002.9975
23.9100	2076.7175
23.9200	1987.4050
23.9300	1827.0950
23.9400	1773.2525
23.9500	1776.7575
23.9600	1786.3650
23.9700	1875.6725
23.9800	1933.9350
23.9900	1876.7975
24.0000	1892.7750
24.0100	2024.5725
24.0200	2010.4900
24.0300	1708.1875
24.0400	1681.5450
24.0500	1757.4200
24.0600	1723.1350
24.0700	1746.2500
24.0800	1740.8725
24.0900	1700.0000
24.1000	1732.1450
24.1100	1776.9150
24.1200	1785.8950
24.1300	1887.0650
24.1400	1968.0500
24.1500	1814.5825
24.1600	1694.5925
24.1700	1785.7475
24.1800	1734.1050
24.1900	1720.4800
24.2000	1929.3300
24.2100	1912.0700
24.2200	1887.8700
24.2300	1950.0000
24.2400	1899.6625
24.2500	1716.1500
24.2600	1612.7250
24.2700	1760.5050
24.2800	1889.6100
24.2900	1902.1725
24.3000	1735.5000
24.3100	1670.8875
24.3200	1650.0000
24.3300	1699.6300
24.3400	1783.3325
24.3500	1808.0700
24.3600	1794.4300
24.3700	1644.5175
24.3800	1605.3950
24.3900	1749.1600
24.4000	1784.2525
24.4100	1681.6225
24.4200	1747.8500
24.4300	1904.4550
24.4400	1950.3900
24.4500	1975.3750
24.4600	1798.4375
24.4700	1724.2000
24.4800	1643.9425
24.4900	1657.5200
24.5000	1724.1475
24.5100	1790.7750
24.5200	1809.2625
24.5300	1742.6350
24.5400	1694.0025
24.5500	1641.4175
24.5600	1566.6675
24.5700	1608.4450
24.5800	1719.0850
24.5900	1753.5900
24.6000	1717.8175
24.6100	1761.8575
24.6200	1818.8475
24.6300	1824.2400
24.6400	1645.8725
24.6500	1610.9025
24.6600	1783.3325
24.6700	1736.3725
24.6800	1691.0225
24.6900	1678.9100
24.7000	1621.7975
24.7100	1863.3125
24.7200	1984.9250
24.7300	1991.8900
24.7400	1784.7125
24.7500	1565.2525
24.7600	1523.1275
24.7700	1618.6125
24.7800	1757.0000
24.7900	1833.3325
24.8000	1850.5600
24.8100	1820.2775
24.8200	1694.2775
24.8300	1803.3000
24.8400	1976.3050
24.8500	1912.2100
24.8600	1965.9000
24.8700	1956.7325
24.8800	1930.7450
24.8900	1661.0125
24.9000	1610.4950
24.9100	1510.7975
24.9200	1483.5400
24.9300	1511.0525
24.9400	1500.0000
24.9500	1539.1625
24.9600	1611.0825
24.9700	1633.4475
24.9800	1766.7800
24.9900	1850.0050
25.0000	1655.7325
25.0100	1494.3425
25.0200	1638.4075
25.0300	1827.6975
25.0400	1844.4950
25.0500	1789.3650
25.0600	1689.0275
25.0700	1715.9525
25.0800	1811.2000
25.0900	1756.3475
25.1000	1693.9000
25.1100	1744.5625
25.1200	1776.7475
25.1300	1828.7475
25.1400	1712.1500
25.1500	1654.9225
25.1600	1710.7750
25.1700	1727.9550
25.1800	1716.6675
25.1900	1679.1625
25.2000	1621.3925
25.2100	1677.3425
25.2200	1684.0150
25.2300	1586.1800
25.2400	1497.7750
25.2500	1700.6725
25.2600	1837.3350
25.2700	1656.1100
25.2800	1659.6775
25.2900	1753.4800
25.3000	1786.0900
25.3100	1740.9650
25.3200	1840.5200
25.3300	1793.7725
25.3400	1764.5700
25.3500	1691.5975
25.3600	1757.3825
25.3700	1756.9800
25.3800	1821.2925
25.3900	1698.8150
25.4000	1707.5825
25.4100	1650.0000
25.4200	1716.6975
25.4300	1912.7525
25.4400	1929.7825
25.4500	1733.3325
25.4600	1784.2450
25.4700	1935.5675
25.4800	2031.8800
25.4900	2132.4650
25.5000	2247.9725
25.5100	2161.6250
25.5200	2155.0325
25.5300	2201.8200
25.5400	2178.0825
25.5500	1968.3475
25.5600	2040.0150
25.5700	1996.7375
25.5800	1959.9450
25.5900	2018.0700
25.6000	2060.3800
25.6100	1946.8950
25.6200	1900.0000
25.6300	1865.5400
25.6400	1729.2900
25.6500	1595.0975
25.6600	1573.5475
25.6700	1559.7675
25.6800	1588.2075
25.6900	1585.4100
25.7000	1588.8300
25.7100	1649.4275
25.7200	1576.3350
25.7300	1590.3525
25.7400	1504.0850
25.7500	1446.0825
25.7600	1736.0700
25.7700	1814.0400
25.7800	1659.4625
25.7900	1595.2350
25.8000	1583.3325
25.8100	1592.8225
25.8200	1602.4625
25.8300	1604.4650
25.8400	1723.5750
25.8500	1773.9225
25.8600	1792.2550
25.8700	1815.6650
25.8800	1581.3000
25.8900	1579.9875
25.9000	1700.0000
25.9100	1732.5200
25.9200	1816.6675
25.9300	1807.4150
25.9400	1792.5650
25.9500	1742.9725
25.9600	1517.8275
25.9700	1483.7800
25.9800	1634.9725
25.9900	1728.9950
26.0000	1831.7750
26.0100	1728.7775
26.0200	1615.0900
26.0300	1727.1600
26.0400	1768.3825
26.0500	1638.2650
26.0600	1570.6275
26.0700	1644.8775
26.0800	1526.1075
26.0900	1728.8675
26.1000	1645.3525
26.1100	1516.7075
26.1200	1686.6875
26.1300	1641.1450
26.1400	1647.5900
26.1500	1693.6650
26.1600	1653.6950
26.1700	1784.1850
26.1800	1564.9775
26.1900	1479.7700
26.2000	1538.4550
26.2100	1582.6075
26.2200	1515.9800
26.2300	1466.6675
26.2400	1496.8950
26.2500	1635.0325
26.2600	1710.2625
26.2700	1487.1350
26.2800	1450.0000
26.2900	1407.3150
26.3000	1304.6275
26.3100	1400.6550
26.3200	1580.5350
26.3300	1799.7525
26.3400	1707.8125
26.3500	1486.5275
26.3600	1262.9850
26.3700	1475.1350
26.3800	1562.5375
26.3900	1616.6775
26.4000	1683.3025
26.4100	1737.4825
26.4200	1725.1625
26.4300	1612.8350
26.4400	1491.7600
26.4500	1495.4325
26.4600	1575.1350
26.4700	1594.9875
26.4800	1721.0950
26.4900	1658.9150
26.5000	1538.6750
26.5100	1456.7000
26.5200	1637.3725
26.5300	1625.8200
26.5400	1562.0600
26.5500	1587.9700
26.5600	1610.0025
26.5700	1776.0575
26.5800	1656.2175
26.5900	1500.7850
26.6000	1501.4850
26.6100	1706.1725
26.6200	1754.5225
26.6300	1484.2775
26.6400	1452.9375
26.6500	1532.3100
26.6600	1595.0350
26.6700	1621.6600
26.6800	1583.3325
26.6900	1610.4300
26.7000	1696.1400
26.7100	1691.0350
26.7200	1705.1425
26.7300	1662.8350
26.7400	1684.3900
26.7500	1769.5100
26.7600	1704.6800
26.7700	1787.8375
26.7800	1640.8950
26.7900	1700.6100
26.8000	1775.2900
26.8100	1595.8175
26.8200	1447.9575
26.8300	1435.5750
26.8400	1605.5025
26.8500	1600.0725
26.8600	1731.4750
26.8700	1757.4900
26.8800	1644.5750
26.8900	1559.3225
26.9000	1591.9250
26.9100	1800.0000
26.9200	1712.5900
26.9300	1392.7350
26.9400	1402.8875
26.9500	1544.1700
26.9600	1579.7300
26.9700	1559.4825
26.9800	1547.6625
26.9900	1617.8625
27.0000	1697.5825
27.0100	1721.5800
27.0200	1598.9550
27.0300	1554.5275
27.0400	1650.9450
27.0500	1699.1025
27.0600	1650.8475
27.0700	1748.1000
27.0800	1842.2875
27.0900	1704.8550
27.1000	1543.7225
27.1100	1604.0500
27.1200	1686.7750
27.1300	1720.5975
27.1400	1762.3475
27.1500	1620.0800
27.1600	1650.3475
27.1700	1706.4875
27.1800	1703.8800
27.1900	1873.6125
27.2000	1926.3075
27.2100	1790.1400
27.2200	1896.7075
27.2300	1886.6675
27.2400	1666.5675
27.2500	1833.1325
27.2600	1913.8125
27.2700	1703.2925
27.2800	1769.2025
27.2900	1973.5125
27.3000	1917.0150
27.3100	1863.0150
27.3200	1897.2050
27.3300	1871.6375
27.3400	2119.3425
27.3500	2164.6500
27.3600	2119.1875
27.3700	2527.6425
27.3800	2417.4150
27.3900	2330.9575
27.4000	2294.2950
27.4100	2477.0250
27.4200	2503.4475
27.4300	2670.6550
27.4400	2428.1150
27.4500	2565.5700
27.4600	2686.1025
27.4700	2888.8200
27.4800	2680.3100
27.4900	2364.5575
27.5000	2674.5125
27.5100	2780.2800
27.5200	2812.3300
27.5300	2949.9125
27.5400	2677.2200
27.5500	2842.2000
27.5600	2985.2625
27.5700	2733.7275
27.5800	2589.3025
27.5900	2670.2075
27.6000	2934.4525
27.6100	2990.0750
27.6200	2887.2775
27.6300	2980.4000
27.6400	2966.6675
27.6500	3001.6425
27.6600	3143.4300
27.6700	3042.0175
27.6800	3074.6800
27.6900	2998.8375
27.7000	2847.6575
27.7100	2965.1975
27.7200	3219.9125
27.7300	3347.8500
27.7400	3519.7750
27.7500	3585.7025
27.7600	3492.2375
27.7700	3808.4875
27.7800	3941.6875
27.7900	4002.7575
27.8000	4102.7650
27.8100	4155.2375
27.8200	4407.6475
27.8300	4694.5300
27.8400	4721.1700
27.8500	5065.1625
27.8600	5410.8200
27.8700	5493.6175
27.8800	5619.9075
27.8900	5627.5825
27.9000	6062.6525
27.9100	6301.6350
27.9200	6771.1625
27.9300	6870.1575
27.9400	6852.5075
27.9500	7201.3325
27.9600	7616.1700
27.9700	8033.8675
27.9800	8850.0000
27.9900	8831.9725
28.0000	8810.2975
28.0100	9192.4450
28.0200	9083.7625
28.0300	9778.9725
28.0400	10285.8925
28.0500	11994.3275
28.0600	13747.7200
28.0700	14601.9750
28.0800	16619.9200
28.0900	18253.4475
28.1000	17889.8625
28.1100	19280.4800
28.1200	21391.3250
28.1300	24161.1350
28.1400	27627.3475
28.1500	31637.5400
28.1600	36028.9800
28.1700	40958.5575
28.1800	44986.5525
28.1900	47965.4725
28.2000	52012.5750
28.2100	56786.0250
28.2200	63094.2175
28.2300	70565.0475
28.2400	79456.5125
28.2500	90589.7775
28.2600	103058.4000
28.2700	119805.2200
28.2800	137217.3325
28.2900	155806.7075
28.3000	174895.4800
28.3100	200865.0850
28.3200	220728.0825
28.3300	239279.4200
28.3400	249862.8725
28.3500	247531.8325
28.3600	242234.8875
28.3700	236647.1600
28.3800	235091.9075
28.3900	228650.5425
28.4000	211516.4050
28.4100	185688.6575
28.4200	155450.9225
28.4300	128808.8725
28.4400	110742.7775
28.4500	97674.2650
28.4600	85703.2525
28.4700	72488.3525
28.4800	55369.8450
28.4900	40100.4850
28.5000	29192.2200
28.5100	22781.0875
28.5200	19151.1875
28.5300	16764.1175
28.5400	14708.8225
28.5500	12809.3625
28.5600	11556.2950
28.5700	10797.9225
28.5800	11163.9075
28.5900	11136.1975
28.6000	10084.0600
28.6100	9452.9675
28.6200	9291.5925
28.6300	8805.4525
28.6400	8491.7175
28.6500	8679.5000
28.6600	8623.3025
28.6700	8350.2725
28.6800	7742.7575
28.6900	7020.1950
28.7000	6905.4650
28.7100	6792.5250
28.7200	6544.5875
28.7300	6083.4650
28.7400	5909.8025
28.7500	5516.0975
28.7600	4916.0650
28.7700	4517.9725
28.7800	4625.5600
28.7900	4265.5600
28.8000	4116.6675
28.8100	4081.5200
28.8200	3734.4075
28.8300	3321.8775
28.8400	3337.3000
28.8500	3105.6600
28.8600	3277.8025
28.8700	3044.2925
28.8800	2713.5000
28.8900	2843.3975
28.9000	2933.3325
28.9100	2918.4150
28.9200	2788.2750
28.9300	2843.1600
28.9400	2936.5875
28.9500	2966.6675
28.9600	2915.2200
28.9700	2434.9300
28.9800	2465.8775
28.9900	2604.0450
29.0000	2494.3075
29.0100	2614.0200
29.0200	2748.4525
29.0300	2722.5675
29.0400	2613.6100
29.0500	2566.6375
29.0600	2403.0150
29.0700	2427.3425
29.0800	2371.1300
29.0900	2427.0125
29.1000	2521.5900
29.1100	2414.5800
29.1200	2579.7000
29.1300	2716.6675
29.1400	2673.8225
29.1500	2225.1750
29.1600	2311.0350
29.1700	2265.3800
29.1800	2431.9450
29.1900	2390.4800
29.2000	2109.5775
29.2100	2232.9675
29.2200	2424.7575
29.2300	2505.9600
29.2400	2356.7650
29.2500	2059.2300
29.2600	2173.2100
29.2700	2229.2250
29.2800	1996.2200
29.2900	2156.3925
29.3000	2233.3325
29.3100	2252.2125
29.3200	2439.6300
29.3300	1917.3425
29.3400	2149.3075
29.3500	2335.3750
29.3600	2141.5375
29.3700	2029.7375
29.3800	1997.6000
29.3900	2185.6900
29.4000	2199.1325
29.4100	1967.8250
29.4200	1992.5250
29.4300	2105.2775
29.4400	1957.9025
29.4500	2078.9775
29.4600	2255.5450
29.4700	2320.1425
29.4800	2128.9775
29.4900	2070.9825
29.5000	2129.0575
29.5100	2078.3200
29.5200	2237.4075
29.5300	2043.7650
29.5400	1944.8525
29.5500	1872.7825
29.5600	1971.7150
29.5700	2051.0000
29.5800	2074.5825
29.5900	2200.9800
29.6000	2201.1525
29.6100	1950.9600
29.6200	1969.5150
29.6300	2012.9075
29.6400	1937.9125
29.6500	1729.6550
29.6600	1674.8550
29.6700	1818.4675
29.6800	1849.1100
29.6900	1834.2125
29.7000	1856.9600
29.7100	1989.3525
29.7200	2099.1500
29.7300	2082.4925
29.7400	2061.6850
29.7500	1966.6675
29.7600	1969.0975
29.7700	2007.8625
29.7800	1840.4450
29.7900	1980.2125
29.8000	1921.2900
29.8100	2018.1875
29.8200	2042.4950
29.8300	1886.2950
29.8400	1958.7675
29.8500	2146.3975
29.8600	2059.5600
29.8700	1905.6050
29.8800	2027.8075
29.8900	1895.9150
29.9000	1797.9875
29.9100	1747.3575
29.9200	1695.7000
29.9300	1996.1550
29.9400	1901.2625
29.9500	1932.7125
29.9600	1914.2225
29.9700	1846.3925
29.9800	1761.2325
29.9900	2068.9925
30.0000	2125.3350
30.0100	1908.4200
30.0200	2143.9350
30.0300	1969.3750
30.0400	2052.6575
30.0500	2122.9025
30.0600	1791.8150
30.0700	1538.3500
30.0800	1709.3425
30.0900	2013.7750
30.1000	1911.0050
30.1100	1718.0525
30.1200	1766.2150
30.1300	1750.4425
30.1400	1772.2825
30.1500	1983.7550
30.1600	1997.1150
30.1700	1880.1150
30.1800	1750.7850
30.1900	1786.7750
30.2000	1932.2175
30.2100	1884.7825
30.2200	1950.0000
30.2300	1952.0550
30.2400	2045.6775
30.2500	1838.4950
30.2600	2098.1250
30.2700	1997.8800
30.2800	1878.0625
30.2900	1584.7475
30.3000	1666.9400
30.3100	1683.3325
30.3200	1684.3450
30.3300	1750.0000
30.3400	1753.0300
30.3500	1962.8725
30.3600	1683.9725
30.3700	1737.1975
30.3800	2048.8400
30.3900	1949.2650
30.4000	1885.2425
30.4100	2066.8300
30.4200	2081.0275
30.4300	1833.3325
30.4400	1831.9950
30.4500	1668.0300
30.4600	1850.7975
30.4700	1965.9375
30.4800	1849.5300
30.4900	1766.4150
30.5000	1716.2225
30.5100	1617.4375
30.5200	1816.6675
30.5300	1816.2225
30.5400	1649.8625
30.5500	1583.6775
30.5600	1816.5925
30.5700	1733.3700
30.5800	1866.6250
30.5900	1733.4550
30.6000	1583.5600
30.6100	1417.0175
30.6200	1765.7225
30.6300	1783.2775
30.6400	1716.9250
30.6500	1517.5625
30.6600	1500.0850
30.6700	1698.8650
30.6800	1749.6875
30.6900	1716.8950
30.7000	1865.5475
30.7100	1701.3425
30.7200	1600.8650
30.7300	1831.1750
30.7400	1783.8250
30.7500	1618.4050
30.7600	1550.7350
30.7700	1615.8925
30.7800	1616.6675
30.7900	1485.0425
30.8000	1614.8775
30.8100	1616.6675
30.8200	1386.7400
30.8300	1711.6000
30.8400	1634.6500
30.8500	1584.1525
30.8600	1616.1000
30.8700	1649.4150
30.8800	1650.0000
30.8900	1584.5850
30.9000	1828.4925
30.9100	1817.0000
30.9200	1751.3700
30.9300	1766.3150
30.9400	1636.2325
30.9500	1682.2175
30.9600	1569.3425
30.9700	1550.3925
30.9800	1484.9425
30.9900	1775.9200
31.0000	1555.9050
31.0100	1517.5300
31.0200	1581.5675
31.0300	1599.5475
31.0400	1632.4100
31.0500	1584.7475
31.0600	1502.4050
31.0700	1613.2275
31.0800	1745.9925
31.0900	1717.6875
31.1000	1603.6450
31.1100	1470.9125
31.1200	1627.9275
31.1300	1842.8425
31.1400	1801.6825
31.1500	1783.9025
31.1600	1751.1600
31.1700	1814.3050
31.1800	1897.0000
31.1900	1610.9800
31.2000	1616.0475
31.2100	1456.2975
31.2200	1385.8925
31.2300	1767.7450
31.2400	1751.3200
31.2500	1558.0325
31.2600	1486.0500
31.2700	1595.1775
31.2800	1631.9350
31.2900	1776.9525
31.3000	1751.4375
31.3100	1686.2475
31.3200	1571.8375
31.3300	1662.1750
31.3400	1682.5750
31.3500	1667.4350
31.3600	1571.3350
31.3700	1741.3325
31.3800	1765.8700
31.3900	1560.5000
31.4000	1676.7925
31.4100	1556.6200
31.4200	1455.0250
31.4300	1639.8325
31.4400	1681.6200
31.4500	1778.1300
31.4600	1814.9125
31.4700	1374.8300
31.4800	1491.9300
31.4900	1421.2000
31.5000	1259.1650
31.5100	1486.1050
31.5200	1610.1125
31.5300	1553.7850
31.5400	1502.8675
31.5500	1405.7950
31.5600	1415.6900
31.5700	1510.7525
31.5800	1516.6675
31.5900	1579.3125
31.6000	1692.8950
31.6100	1606.1500
31.6200	1318.6275
31.6300	1440.5975
31.6400	1496.8350
31.6500	1437.5925
31.6600	1324.1875
31.6700	1488.0725
31.6800	1328.7025
31.6900	1456.7300
31.7000	1606.6425
31.7100	1741.0100
31.7200	1548.0700
31.7300	1579.9025
31.7400	1614.3600
31.7500	1461.6325
31.7600	1511.9750
31.7700	1609.5700
31.7800	1539.2975
31.7900	1456.0125
31.8000	1650.9050
31.8100	1589.4450
31.8200	1367.2500
31.8300	1457.9725
31.8400	1574.5700
31.8500	1552.5225
31.8600	1442.2350
31.8700	1494.8750
31.8800	1623.0025
31.8900	1541.1400
31.9000	1487.2650
31.9100	1590.7550
31.9200	1553.9925
31.9300	1703.2625
31.9400	1364.3925
31.9500	1547.6225
31.9600	1903.1925
31.9700	1811.0400
31.9800	1509.7375
31.9900	1452.8000
32.0000	1556.8000
32.0100	1520.9250
32.0200	1425.2425
32.0300	1340.5275
32.0400	1181.1550
32.0500	1455.6200
32.0600	1392.1450
32.0700	1520.0275
32.0800	1533.3325
32.0900	1548.5025
32.1000	1413.5700
32.1100	1369.7025
32.1200	1502.9200
32.1300	1562.0550
32.1400	1581.7850
32.1500	1462.4550
32.1600	1465.1000
32.1700	1511.9375
32.1800	1456.3450
32.1900	1419.8600
32.2000	1386.5450
32.2100	1443.5375
32.2200	1675.6125
32.2300	1790.1875
32.2400	1574.6800
32.2500	1474.9425
32.2600	1661.6875
32.2700	1743.3000
32.2800	1600.1800
32.2900	1418.6400
32.3000	1385.0375
32.3100	1398.2850
32.3200	1160.9175
32.3300	1267.7300
32.3400	1522.1025
32.3500	1400.8675
32.3600	1413.1400
32.3700	1386.8800
32.3800	1323.7975
32.3900	1420.7850
32.4000	1359.0125
32.4100	1260.8725
32.4200	1309.3775
32.4300	1361.1700
32.4400	1277.7175
32.4500	1325.9275
32.4600	1392.5550
32.4700	1429.5900
32.4800	1226.3325
32.4900	1495.5200
32.5000	1474.2700
32.5100	1363.3725
32.5200	1320.5075
32.5300	1405.0875
32.5400	1313.5775
32.5500	1314.7175
32.5600	1404.9100
32.5700	1519.5500
32.5800	1459.8950
32.5900	1450.0000
32.6000	1523.3400
32.6100	1533.3325
32.6200	1416.1450
32.6300	1458.5550
32.6400	1452.0375
32.6500	1406.1425
32.6600	1443.8275
32.6700	1362.4025
32.6800	1291.6400
32.6900	1531.1950
32.7000	1683.2300
32.7100	1423.3500
32.7200	1441.5350
32.7300	1450.0000
32.7400	1420.9375
32.7500	1561.8800
32.7600	1554.3100
32.7700	1462.9900
32.7800	1392.0325
32.7900	1426.7800
32.8000	1389.9150
32.8100	1412.2600
32.8200	1575.6500
32.8300	1484.4550
32.8400	1279.0325
32.8500	1163.4575
32.8600	1135.5850
32.8700	1090.1200
32.8800	1198.4875
32.8900	1461.2050
32.9000	1370.6275
32.9100	1249.4450
32.9200	1305.1100
32.9300	1331.0125
32.9400	1390.6775
32.9500	1528.9350
32.9600	1478.4200
32.9700	1509.5850
32.9800	1316.5125
32.9900	1211.8975
33.0000	1214.2775
33.0100	1459.2125
33.0200	1428.7125
33.0300	1131.7075
33.0400	1211.4775
33.0500	1304.4750
33.0600	1245.5725
33.0700	1290.1700
33.0800	1527.1875
33.0900	1538.2875
33.1000	1207.2000
33.1100	1135.8300
33.1200	1246.6150
33.1300	1408.1700
33.1400	1390.9100
33.1500	1468.1200
33.1600	1342.1200
33.1700	1231.9975
33.1800	1329.4800
33.1900	1392.2750
33.2000	1357.7525
33.2100	1209.2750
33.2200	1352.0875
33.2300	1425.4925
33.2400	1335.0300
33.2500	1372.8000
33.2600	1341.2625
33.2700	1291.2900
33.2800	1381.3650
33.2900	1358.0150
33.3000	1294.0600
33.3100	1339.2350
33.3200	1336.0350
33.3300	1263.5550
33.3400	1096.5925
33.3500	1289.6475
33.3600	1291.5525
33.3700	1325.0850
33.3800	1263.7975
33.3900	1375.0775
33.4000	1400.0000
33.4100	1358.3650
33.4200	1197.4475
33.4300	1319.1125
33.4400	1405.3950
33.4500	1319.7925
33.4600	1327.6600
33.4700	1360.9725
33.4800	1311.4275
33.4900	1396.6025
33.5000	1444.2475
33.5100	1270.8475
33.5200	1205.7900
33.5300	1337.6150
33.5400	1407.9225
33.5500	1320.4725
33.5600	1231.3375
33.5700	1299.0025
33.5800	1398.9450
33.5900	1348.1500
33.6000	1292.2525
33.6100	1214.9125
33.6200	1268.3725
33.6300	1310.6625
33.6400	1166.4625
33.6500	1242.4950
33.6600	1171.2175
33.6700	1122.7475
33.6800	1266.4450
33.6900	1490.4900
33.7000	1438.1550
33.7100	1294.3825
33.7200	1198.7800
33.7300	1237.6050
33.7400	1399.1400
33.7500	1297.8500
33.7600	1374.9775
33.7700	1535.2900
33.7800	1296.2800
33.7900	1165.7850
33.8000	1244.5000
33.8100	1347.6100
33.8200	1447.5500
33.8300	1426.2525
33.8400	1241.6700
33.8500	1307.6125
33.8600	1306.4500
33.8700	1138.8125
33.8800	1220.8050
33.8900	1343.8925
33.9000	1487.2975
33.9100	1396.1225
33.9200	1259.5950
33.9300	1313.5800
33.9400	1346.6975
33.9500	1296.5800
33.9600	1203.2600
33.9700	1183.3325
33.9800	1209.9850
33.9900	1283.2500
34.0000	1472.9900
34.0100	1543.2600
34.0200	1417.1250
34.0300	1396.6100
34.0400	1400.0000
34.0500	1360.2250
34.0600	1124.7675
34.0700	1159.3425
34.0800	1223.0225
34.0900	1233.3325
34.1000	1272.9650
34.1100	1336.1375
34.1200	1310.4275
34.1300	1313.1825
34.1400	1184.9475
34.1500	1150.0000
34.1600	1373.5950
34.1700	1196.7600
34.1800	1080.8000
34.1900	1079.7900
34.2000	1070.2200
34.2100	1223.9200
34.2200	1397.6150
34.2300	1289.3950
34.2400	1210.7725
34.2500	1278.3950
34.2600	1378.3375
34.2700	1334.7650
34.2800	1225.4075
34.2900	1134.8625
34.3000	1207.7925
34.3100	1324.3925
34.3200	1259.0100
34.3300	1246.3225
34.3400	1237.0200
34.3500	1155.5150
34.3600	1249.9750
34.3700	1153.8275
34.3800	1142.5500
34.3900	1175.8625
34.4000	1144.5675
34.4100	1120.4200
34.4200	1039.2500
34.4300	1132.7050
34.4400	1050.7150
34.4500	1093.9100
34.4600	1386.8175
34.4700	1376.6825
34.4800	1272.9300
34.4900	1339.8500
34.5000	1353.8400
34.5100	1273.1025
34.5200	1045.0925
34.5300	1098.5075
34.5400	1171.6950
34.5500	1247.2225
34.5600	1228.3625
34.5700	1101.8375
34.5800	1028.4200
34.5900	1322.4200
34.6000	1263.9050
34.6100	1432.9175
34.6200	1283.9125
34.6300	1038.8475
34.6400	1084.8675
34.6500	1078.6200
34.6600	1168.0475
34.6700	1060.7050
34.6800	1016.6675
34.6900	1143.1075
34.7000	1195.9675
34.7100	1212.6250
34.7200	1191.4350
34.7300	1120.3050
34.7400	1175.5775
34.7500	1288.1075
34.7600	1216.0500
34.7700	957.1175
34.7800	1008.9125
34.7900	1250.7750
34.8000	1166.2000
34.8100	1104.1375
34.8200	1100.0000
34.8300	1162.5525
34.8400	1108.3275
34.8500	1095.8250
34.8600	1149.9275
34.8700	1029.4725
34.8800	1170.2725
34.8900	1208.4275
34.9000	1224.8875
34.9100	1208.4650
34.9200	1113.0275
34.9300	1095.7475
34.9400	1149.6225
34.9500	1030.3125
34.9600	1032.8800
34.9700	1087.1300
34.9800	1124.7350
34.9900	1022.1125
35.0000	1119.1650
35.0100	1166.6675
35.0200	1117.3500
35.0300	1149.2800
35.0400	1191.2875
35.0500	1310.7050
35.0600	1276.2525
35.0700	1274.5625
35.0800	1148.3400
35.0900	1124.5250
35.1000	1194.6000
35.1100	1179.9350
35.1200	1264.5400
35.1300	1263.3250
35.1400	1237.7850
35.1500	1221.1275
35.1600	1289.8425
35.1700	1280.1075
35.1800	1144.8950
35.1900	1087.8325
35.2000	1046.8600
35.2100	1033.3325
35.2200	1009.0550
35.2300	1157.6850
35.2400	1192.4275
35.2500	1050.1150
35.2600	1108.9100
35.2700	1089.5400
35.2800	1066.6675
35.2900	1006.3025
35.3000	1188.4100
35.3100	1194.3425
35.3200	1106.4450
35.3300	1131.4725
35.3400	1186.0775
35.3500	1187.9850
35.3600	1063.2675
35.3700	1028.6625
35.3800	1177.1850
35.3900	1149.4875
35.4000	1008.9500
35.4100	930.7900
35.4200	1012.2650
35.4300	1205.2225
35.4400	1171.2200
35.4500	1192.9400
35.4600	1228.5775
35.4700	1245.2350
35.4800	1119.1775
35.4900	1054.7825
35.5000	1038.1250
35.5100	1128.2500
35.5200	1261.5075
35.5300	1442.1500
35.5400	1310.6200
35.5500	1091.4100
35.5600	1068.7850
35.5700	1165.9900
35.5800	1200.0000
35.5900	1093.8975
35.6000	1061.7800
35.6100	1149.0575
35.6200	1183.3325
35.6300	1265.5925
35.6400	1253.0325
35.6500	1233.3325
35.6600	1198.1650
35.6700	1077.9100
35.6800	1080.1500
35.6900	1100.0000
35.7000	1205.1700
35.7100	1308.3800
35.7200	1123.3350
35.7300	951.7325
35.7400	928.3150
35.7500	1014.8025
35.7600	1073.2575
35.7700	1106.5725
35.7800	1151.4975
35.7900	1224.6700
35.8000	1250.0000
35.8100	1238.4175
35.8200	1059.7450
35.8300	1052.7125
35.8400	1037.1175
35.8500	958.9450
35.8600	1037.1475
35.8700	1048.7575
35.8800	1056.3650
35.8900	997.6250
35.9000	1012.6550
35.9100	1090.7725
35.9200	1139.6250
35.9300	1127.0625
35.9400	1059.3675
35.9500	1067.6850
35.9600	1174.8625
35.9700	1193.8025
35.9800	1206.1775
35.9900	1216.6675
36.0000	1205.2625
36.0100	1086.0575
36.0200	1044.7175
36.0300	1095.5025
36.0400	1128.0325
36.0500	1121.9775
36.0600	1105.3200
36.0700	1043.3100
36.0800	1005.3375
36.0900	1124.5125
36.1000	1319.0525
36.1100	1304.2300
36.1200	1063.4225
36.1300	1000.5125
36.1400	1061.7575
36.1500	1060.8075
36.1600	1072.5075
36.1700	1049.6000
36.1800	932.2175
36.1900	973.1400
36.2000	1173.6975
36.2100	1339.6575
36.2200	1293.7500
36.2300	1160.4925
36.2400	1105.4875
36.2500	1088.8300
36.2600	1072.1725
36.2700	1010.9100
36.2800	1083.6100
36.2900	1233.5275
36.3000	1249.9625
36.3100	1199.9925
36.3200	1150.0200
36.3300	1122.2375
36.3400	1149.9250
36.3500	1055.9000
36.3600	1022.1350
36.3700	1033.3325
36.3800	1011.2350
36.3900	977.9200
36.4000	1021.8175
36.4100	1094.0825
36.4200	1028.5750
36.4300	1104.3575
36.4400	1177.6600
36.4500	1172.3500
36.4600	1221.5375
36.4700	1063.5950
36.4800	1010.4900
36.4900	1044.2800
36.5000	951.5650
36.5100	987.4225
36.5200	1055.1700
36.5300	1023.0300
36.5400	945.5000
36.5500	1014.6825
36.5600	1121.0750
36.5700	1247.8500
36.5800	1267.4125
36.5900	1271.7075
36.6000	1185.7350
36.6100	992.4775
36.6200	927.4925
36.6300	933.3325
36.6400	922.5250
36.6500	916.6675
36.6600	1035.3425
36.6700	1186.2350
36.6800	1104.0900
36.6900	958.0075
36.7000	959.6725
36.7100	1069.2725
36.7200	1041.5350
36.7300	924.9325
36.7400	1065.4850
36.7500	1188.0775
36.7600	1167.9100
36.7700	1203.4350
36.7800	1073.1675
36.7900	940.6600
36.8000	1055.2375
36.8100	1058.7825
36.8200	910.2575
36.8300	966.9475
36.8400	1128.9350
36.8500	1193.9475
36.8600	1210.6050
36.8700	1237.8550
36.8800	1144.1450
36.8900	977.5700
36.9000	980.0700
36.9100	1027.2250
36.9200	1075.5275
36.9300	1215.9325
36.9400	1104.3200
36.9500	978.9575
36.9600	1082.2950
36.9700	1076.4825
36.9800	980.8675
36.9900	1033.8725
37.0000	978.5825
37.0100	1042.2550
37.0200	1033.0150
37.0300	1056.4650
37.0400	1173.0675
37.0500	1154.0925
37.0600	1033.3075
37.0700	1004.1550
37.0800	954.2575
37.0900	895.8825
37.1000	976.7800
37.1100	1022.9600
37.1200	1016.6675
37.1300	985.6000
37.1400	1039.0900
37.1500	1010.9725
37.1600	1038.9625
37.1700	990.4650
37.1800	995.1925
37.1900	1156.9400
37.2000	1078.9625
37.2100	1024.4625
37.2200	1019.1800
37.2300	907.6250
37.2400	860.2550
37.2500	1010.1050
37.2600	1151.1825
37.2700	999.2425
37.2800	995.7325
37.2900	1097.2925
37.3000	1086.0675
37.3100	995.3325
37.3200	919.4550
37.3300	991.5525
37.3400	928.0400
37.3500	961.6950
37.3600	1114.4925
37.3700	1065.3075
37.3800	1070.8875
37.3900	1167.2550
37.4000	1058.4825
37.4100	1037.3625
37.4200	942.0700
37.4300	910.4875
37.4400	990.2875
37.4500	1026.7300
37.4600	1013.2250
37.4700	1170.7575
37.4800	1233.1550
37.4900	999.4725
37.5000	876.6850
37.5100	1043.4650
37.5200	1050.0100
37.5300	953.3625
37.5400	903.3900
37.5500	953.1350
37.5600	1009.9625
37.5700	1026.6200
37.5800	973.6675
37.5900	983.0100
37.6000	1006.7400
37.6100	990.0825
37.6200	923.8850
37.6300	962.5250
37.6400	1026.5575
37.6500	1122.2625
37.6600	1084.6150
37.6700	987.0775
37.6800	946.9600
37.6900	953.0225
37.7000	1055.1875
37.7100	1205.1050
37.7200	1197.9450
37.7300	1051.9175
37.7400	973.5350
37.7500	947.0850
37.7600	972.4575
37.7700	980.4550
37.7800	869.0350
37.7900	956.0650
37.8000	1066.6675
37.8100	1008.2500
37.8200	1141.7500
37.8300	1305.5375
37.8400	1139.1575
37.8500	1038.8000
37.8600	1173.2650
37.8700	1133.8200
37.8800	962.9450
37.8900	986.9725
37.9000	1050.0000
37.9100	992.1275
37.9200	930.7275
37.9300	849.2750
37.9400	780.7625
37.9500	853.1525
37.9600	868.6650
37.9700	919.6575
37.9800	983.3325
37.9900	954.6125
38.0000	923.7700
38.0100	907.1100
38.0200	823.6275
38.0300	881.1150
38.0400	1052.4225
38.0500	1126.1850
38.0600	1085.7800
38.0700	1030.9975
38.0800	1007.1750
38.0900	990.5175
38.1000	964.3850
38.1100	950.0000
38.1200	1044.5650
38.1300	1088.3250
38.1400	1076.1050
38.1500	1064.4750
38.1600	1021.7375
38.1700	952.9425
38.1800	982.4850
38.1900	1042.7275
38.2000	1040.6150
38.2100	1070.8350
38.2200	1090.6325
38.2300	1055.2600
38.2400	1052.0300
38.2500	1038.6475
38.2600	1035.3275
38.2700	956.7800
38.2800	855.3950
38.2900	935.6775
38.3000	1081.7325
38.3100	1105.4750
38.3200	1036.9475
38.3300	972.1950
38.3400	875.9250
38.3500	770.4150
38.3600	779.5400
38.3700	908.9925
38.3800	918.7675
38.3900	848.2375
38.4000	870.1575
38.4100	936.7875
38.4200	975.8550
38.4300	1001.6925
38.4400	1035.0075
38.4500	967.5500
38.4600	918.3050
38.4700	942.4775
38.4800	1041.3450
38.4900	1025.4125
38.5000	922.6500
38.5100	927.3225
38.5200	1013.6925
38.5300	1103.0275
38.5400	1106.0900
38.5500	1028.9000
38.5600	1001.4600
38.5700	1089.1025
38.5800	1068.5900
38.5900	1009.0375
38.6000	1079.8600
38.6100	1097.2575
38.6200	1093.6975
38.6300	1116.6675
38.6400	981.7850
38.6500	956.5000
38.6600	952.5625
38.6700	910.2300
38.6800	924.3775
38.6900	952.4575
38.7000	1001.2125
38.7100	1061.3175
38.7200	1091.0800
38.7300	1074.4200
38.7400	1039.9550
38.7500	981.0875
38.7600	923.3425
38.7700	908.8775
38.7800	969.8750
38.7900	954.6525
38.8000	900.0000
38.8100	891.1575
38.8200	971.6600
38.8300	1067.6475
38.8400	1065.7025
38.8500	1094.0325
38.8600	1115.7375
38.8700	1091.2125
38.8800	977.9750
38.8900	944.7300
38.9000	956.1900
38.9100	899.1600
38.9200	900.8225
38.9300	934.1375
38.9400	950.0000
38.9500	976.1550
38.9600	1034.8375
38.9700	1014.4625
38.9800	975.3575
38.9900	939.9200
39.0000	900.0000
39.0100	951.9925
39.0200	991.3425
39.0300	966.0375
39.0400	958.6400
39.0500	1001.1875
39.0600	1197.1400
39.0700	1194.9725
39.0800	1058.6050
39.0900	997.9050
39.1000	959.0925
39.1100	846.0925
39.1200	750.9425
39.1300	826.1325
39.1400	909.4225
39.1500	898.7450
39.1600	986.5400
39.1700	1048.4675
39.1800	898.1725
39.1900	893.2325
39.2000	949.6700
39.2100	899.3725
39.2200	909.0725
39.2300	933.0550
39.2400	899.7400
39.2500	900.2425
39.2600	975.7900
39.2700	1050.2075
39.2800	1066.6675
39.2900	974.0475
39.3000	959.0350
39.3100	1058.5400
39.3200	1083.3325
39.3300	1083.3325
39.3400	1083.3325
39.3500	1058.2300
39.3600	999.8975
39.3700	1050.1700
39.3800	1083.2850
39.3900	1000.0025
39.4000	1016.6125
39.4100	1058.3500
39.4200	1050.0000
39.4300	1091.4900
39.4400	1108.4650
39.4500	967.4050
39.4600	924.4475
39.4700	1049.5800
39.4800	1133.0175
39.4900	1108.9450
39.5000	1066.4750
39.5100	1050.4200
39.5200	983.7875
39.5300	876.1000
39.5400	914.8350
39.5500	1033.3325
39.5600	1107.0000
39.5700	1175.1575
39.5800	1101.3250
39.5900	984.3775
39.6000	957.7850
39.6100	1007.7600
39.6200	992.6675
39.6300	950.0000
39.6400	966.2325
39.6500	983.3325
39.6600	942.8400
39.6700	997.0800
39.6800	1083.8375
39.6900	1050.5225
39.7000	1033.3325
39.7100	1017.2225
39.7200	991.9525
39.7300	975.2950
39.7400	990.7550
39.7500	984.5825
39.7600	982.0500
39.7700	1016.6675
39.7800	984.6875
39.7900	957.9875
39.8000	942.7325
39.8100	980.4200
39.8200	1050.0000
39.8300	1050.0000
39.8400	1010.2825
39.8500	903.1875
39.8600	849.1850
39.8700	922.0900
39.8800	920.0600
39.8900	929.0050
39.9000	1032.4500
39.9100	1081.5325
39.9200	1093.0425
39.9300	1011.6050
39.9400	950.0000
39.9500	902.9050
39.9600	936.2450
39.9700	931.5200
39.9800	793.1975
39.9900	829.1850
40.0000	939.0300
40.0100	983.3325
40.0200	1014.4900
40.0300	1026.6575
40.0400	984.4550
40.0500	935.6125
40.0600	931.0200
40.0700	920.1900
40.0800	897.6175
40.0900	979.7075
40.1000	1017.8925
40.1100	992.2875
40.1200	960.2225
40.1300	871.7725
40.1400	784.6275
40.1500	912.5475
40.1600	1021.9775
40.1700	965.3225
40.1800	1013.9425
40.1900	973.5600
40.2000	944.4175
40.2100	1016.6675
40.2200	1016.6675
40.2300	940.5675
40.2400	834.7975
40.2500	877.4100
40.2600	912.0775
40.2700	904.5450
40.2800	934.8650
40.2900	893.9900
40.3000	836.4650
40.3100	882.9600
40.3200	1028.5350
40.3300	1008.0825
40.3400	901.6325
40.3500	905.8575
40.3600	918.3350
40.3700	982.4025
40.3800	971.0950
40.3900	900.6000
40.4000	960.9375
40.4100	940.7900
40.4200	882.9600
40.4300	814.8800
40.4400	885.3550
40.4500	927.7300
40.4600	929.6600
40.4700	885.1950
40.4800	738.9450
40.4900	808.9575
40.5000	988.8100
40.5100	928.1925
40.5200	838.7600
40.5300	925.5125
40.5400	985.3050
40.5500	929.9725
40.5600	846.6800
40.5700	814.6450
40.5800	869.9025
40.5900	975.1100
40.6000	1013.5150
40.6100	959.3775
40.6200	906.3200
40.6300	850.0000
40.6400	864.5275
40.6500	876.0775
40.6600	837.6800
40.6700	901.3350
40.6800	1026.1025
40.6900	951.6750
40.7000	852.2400
40.7100	847.7425
40.7200	866.6675
40.7300	859.4800
40.7400	921.7950
40.7500	1016.6675
40.7600	945.0400
40.7700	764.1475
40.7800	800.0650
40.7900	985.7250
40.8000	959.5375
40.8100	921.5175
40.8200	840.6575
40.8300	825.9575
40.8400	968.4825
40.8500	1040.8075
40.8600	969.1750
40.8700	950.0000
40.8800	971.1875
40.8900	936.5125
40.9000	835.9075
40.9100	830.7425
40.9200	871.0875
40.9300	892.9800
40.9400	876.3200
40.9500	831.6450
40.9600	846.2950
40.9700	919.3575
40.9800	900.0000
40.9900	879.0875
41.0000	863.9250
41.0100	1015.4650
41.0200	1172.2150
41.0300	1029.2675
41.0400	848.6875
41.0500	813.8425
41.0600	854.0725
41.0700	931.6650
41.0800	986.2075
41.0900	925.3400
41.1000	859.7875
41.1100	850.0000
41.1200	904.9050
41.1300	921.6400
41.1400	860.7200
41.1500	845.2925
41.1600	787.1575
41.1700	837.1325
41.1800	900.7350
41.1900	929.5850
41.2000	872.8125
41.2100	935.1650
41.2200	968.0650
41.2300	860.9500
41.2400	977.0550
41.2500	1009.9100
41.2600	979.7575
41.2700	923.0425
41.2800	849.6775
41.2900	853.7825
41.3000	960.1925
41.3100	986.5875
41.3200	892.9875
41.3300	803.4025
41.3400	880.1050
41.3500	1036.7550
41.3600	1093.3475
41.3700	890.1350
41.3800	783.2450
41.3900	839.9750
41.4000	889.7950
41.4100	963.2475
41.4200	923.7875
41.4300	919.2350
41.4400	990.6025
41.4500	932.9575
41.4600	996.5000
41.4700	1016.6675
41.4800	1003.5325
41.4900	970.2150
41.5000	956.5500
41.5100	966.6675
41.5200	920.9275
41.5300	830.4225
41.5400	871.6975
41.5500	1100.5100
41.5600	1198.8125
41.5700	1008.2250
41.5800	916.6675
41.5900	942.5750
41.6000	905.7050
41.6100	802.7150
41.6200	807.5225
41.6300	831.1125
41.6400	881.8400
41.6500	793.5725
41.6600	886.0575
41.6700	960.2300
41.6800	765.4350
41.6900	740.8975
41.7000	807.7825
41.7100	779.4250
41.7200	831.8575
41.7300	851.5150
41.7400	869.9100
41.7500	1008.7225
41.7600	980.2700
41.7700	847.6725
41.7800	854.6050
41.7900	885.0925
41.8000	814.4125
41.8100	846.3200
41.8200	962.5800
41.8300	1008.4625
41.8400	1031.1775
41.8500	1012.5325
41.8600	1027.0750
41.8700	966.6650
41.8800	914.5450
41.8900	1016.5400
41.9000	1025.2875
41.9100	881.3450
41.9200	881.0500
41.9300	951.9400
41.9400	989.5275
41.9500	987.6275
41.9600	960.4900
41.9700	906.8125
41.9800	833.3325
41.9900	851.7950
42.0000	901.7700
42.0100	964.0200
42.0200	986.0200
42.0300	853.7525
42.0400	790.0300
42.0500	904.4550
42.0600	877.2350
42.0700	836.2200
42.0800	783.3325
42.0900	807.6275
42.1000	837.8700
42.1100	804.5525
42.1200	813.5800
42.1300	884.7900
42.1400	898.5675
42.1500	896.7950
42.1600	907.8775
42.1700	875.4000
42.1800	950.0000
42.1900	961.9875
42.2000	935.4475
42.2100	885.8650
42.2200	967.9100
42.2300	952.3075
42.2400	848.8050
42.2500	769.1000
42.2600	736.7725
42.2700	892.6325
42.2800	952.6250
42.2900	825.2700
42.3000	791.3425
42.3100	884.3600
42.3200	934.3375
42.3300	966.6675
42.3400	1001.9125
42.3500	1107.7300
42.3600	1212.6250
42.3700	1219.8625
42.3800	1139.1750
42.3900	1155.8350
42.4000	1155.0125
42.4100	1174.0650
42.4200	1238.3775
42.4300	1193.4550
42.4400	1126.8200
42.4500	1071.7600
42.4600	1021.1025
42.4700	949.3525
42.4800	916.6675
42.4900	905.1550
42.5000	883.3325
42.5100	889.0725
42.5200	894.2675
42.5300	831.8175
42.5400	796.2125
42.5500	910.9575
42.5600	882.8975
42.5700	889.8475
42.5800	966.6675
42.5900	898.5450
42.6000	812.0200
42.6100	928.3050
42.6200	966.3725
42.6300	922.0425
42.6400	922.5500
42.6500	899.1100
42.6600	800.3975
42.6700	900.3525
42.6800	927.4225
42.6900	827.6050
42.7000	788.9250
42.7100	844.6625
42.7200	955.6325
42.7300	949.8950
42.7400	827.7625
42.7500	838.8500
42.7600	977.7175
42.7700	1022.2625
42.7800	955.7750
42.7900	855.6250
42.8000	838.8450
42.8100	866.5150
42.8200	872.5150
42.8300	772.7525
42.8400	732.6650
42.8500	844.2800
42.8600	822.9400
42.8700	815.2050
42.8800	972.4325
42.8900	933.6725
42.9000	921.7400
42.9100	939.5325
42.9200	872.4950
42.9300	850.0000
42.9400	871.6150
42.9500	916.6675
42.9600	965.1600
42.9700	1093.5700
42.9800	1096.2725
42.9900	951.1425
43.0000	894.0475
43.0100	911.3175
43.0200	916.0250
43.0300	950.0000
43.0400	928.6950
43.0500	856.7400
43.0600	794.6900
43.0700	841.6675
43.0800	977.2575
43.0900	947.1225
43.1000	886.1350
43.1100	952.5475
43.1200	876.3225
43.1300	970.1325
43.1400	1029.0025
43.1500	1004.3000
43.1600	1008.1275
43.1700	869.6300
43.1800	797.9775
43.1900	845.8225
43.2000	836.4225
43.2100	937.4500
43.2200	962.5825
43.2300	932.2075
43.2400	920.1125
43.2500	847.6550
43.2600	911.5100
43.2700	930.8975
43.2800	938.2975
43.2900	789.7325
43.3000	787.1725
43.3100	823.0950
43.3200	820.4450
43.3300	836.0450
43.3400	792.1475
43.3500	850.0000
43.3600	860.1625
43.3700	898.5525
43.3800	908.0050
43.3900	844.9425
43.4000	868.6875
43.4100	939.9150
43.4200	901.5600
43.4300	886.7775
43.4400	918.2725
43.4500	868.2950
43.4600	858.3575
43.4700	901.6750
43.4800	866.6675
43.4900	826.8100
43.5000	783.0775
43.5100	909.9350
43.5200	908.5375
43.5300	845.0475
43.5400	833.3325
43.5500	877.7625
43.5600	1017.8375
43.5700	1119.6850
43.5800	1019.2475
43.5900	661.7600
43.6000	718.5850
43.6100	883.3325
43.6200	902.8675
43.6300	915.8650
43.6400	813.8575
43.6500	805.5575
43.6600	895.1475
43.6700	873.6400
43.6800	816.1300
43.6900	733.3325
43.7000	771.9225
43.7100	900.3800
43.7200	944.8650
43.7300	835.5975
43.7400	800.0000
43.7500	828.7175
43.7600	876.1075
43.7700	821.4375
43.7800	857.1525
43.7900	911.9100
43.8000	900.0000
43.8100	904.7400
43.8200	897.7325
43.8300	859.4525
43.8400	864.4575
43.8500	840.2225
43.8600	965.8525
43.8700	1062.8875
43.8800	850.5100
43.8900	776.0300
43.9000	814.0225
43.9100	836.0000
43.9200	813.9775
43.9300	850.0000
43.9400	859.2875
43.9500	878.6975
43.9600	908.3300
43.9700	984.3125
43.9800	853.8550
43.9900	756.3700
44.0000	812.0675
44.0100	813.7775
44.0200	863.7550
44.0300	881.6900
44.0400	810.4825
44.0500	750.0000
44.0600	786.4425
44.0700	924.2650
44.0800	1046.9550
44.0900	1074.2675
44.1000	1027.3725
44.1100	935.0375
44.1200	863.5325
44.1300	886.4900
44.1400	858.9925
44.1500	820.4900
44.1600	717.2225
44.1700	859.7325
44.1800	736.6000
44.1900	731.2150
44.2000	861.1875
44.2100	938.8850
44.2200	790.0425
44.2300	734.3875
44.2400	818.7150
44.2500	916.6675
44.2600	903.4425
44.2700	897.4725
44.2800	987.7275
44.2900	978.0700
44.3000	907.9100
44.3100	852.7325
44.3200	797.2150
44.3300	865.9050
44.3400	838.4150
44.3500	869.6050
44.3600	839.6875
44.3700	1021.6375
44.3800	1066.0525
44.3900	1016.6675
44.4000	990.8325
44.4100	916.6675
44.4200	938.1225
44.4300	978.5800
44.4400	946.6025
44.4500	1007.7175
44.4600	894.9750
44.4700	800.3525
44.4800	871.2375
44.4900	933.3325
44.5000	946.0325
44.5100	996.0100
44.5200	1003.8025
44.5300	904.0325
44.5400	858.2575
44.5500	820.7425
44.5600	766.5750
44.5700	725.0325
44.5800	800.1025
44.5900	979.1750
44.6000	1008.4150
44.6100	816.7200
44.6200	762.5200
44.6300	799.6700
44.6400	941.7350
44.6500	887.7925
44.6600	837.0575
44.6700	933.5575
44.6800	875.1275
44.6900	878.6725
44.7000	974.8450
44.7100	975.5100
44.7200	855.1800
44.7300	741.0700
44.7400	804.4850
44.7500	803.1425
44.7600	904.5300
44.7700	822.2425
44.7800	703.4900
44.7900	810.9350
44.8000	954.0175
44.8100	950.6275
44.8200	924.0175
44.8300	968.0325
44.8400	850.7125
44.8500	843.7975
44.8600	979.3600
44.8700	930.9600
44.8800	828.5475
44.8900	866.6675
44.9000	890.3425
44.9100	998.1775
44.9200	1088.2050
44.9300	1010.7550
44.9400	883.3325
44.9500	906.7950
44.9600	971.6225
44.9700	945.0225
44.9800	936.6625
44.9900	783.3325
45.0000	806.5825
45.0100	918.1450
45.0200	998.5850
45.0300	902.6025
45.0400	982.0525
45.0500	1014.1350
45.0600	915.5075
45.0700	800.0000
45.0800	815.2750
45.0900	862.8550
45.1000	853.8050
45.1100	847.6800
45.1200	760.5900
45.1300	717.3825
45.1400	844.6625
45.1500	864.4875
45.1600	807.5250
45.1700	829.5775
45.1800	842.9050
45.1900	933.3325
45.2000	918.3975
45.2100	855.4850
45.2200	846.4275
45.2300	953.7125
45.2400	940.7225
45.2500	875.8950
45.2600	911.2825
45.2700	735.0925
45.2800	811.0350
45.2900	846.3275
45.3000	822.3400
45.3100	805.2775
45.3200	876.0325
45.3300	828.1400
45.3400	775.4550
45.3500	884.8150
45.3600	982.6025
45.3700	1103.6150
45.3800	1055.3200
45.3900	869.3500
45.4000	1000.0000
45.4100	989.2375
45.4200	957.1625
45.4300	972.6125
45.4400	965.4375
45.4500	1069.0925
45.4600	1020.2200
45.4700	1008.5100
45.4800	976.8375
45.4900	1178.8050
45.5000	1121.1550
45.5100	1224.6325
45.5200	1316.6675
45.5300	1316.6675
45.5400	1288.6825
45.5500	1221.7375
45.5600	1422.4150
45.5700	1619.4225
45.5800	1511.1375
45.5900	1282.6825
45.6000	1230.4950
45.6100	1300.5825
45.6200	1359.7800
45.6300	1323.0250
45.6400	1266.1850
45.6500	1189.7325
45.6600	1153.4150
45.6700	1214.3925
45.6800	1369.3825
45.6900	1212.6525
45.7000	1120.8825
45.7100	1299.5175
45.7200	1207.1650
45.7300	1349.8275
45.7400	1279.9725
45.7500	1270.0200
45.7600	1286.6800
45.7700	1306.6825
45.7800	1346.6700
45.7900	1416.6350
45.8000	1440.1700
45.8100	1246.7850
45.8200	1209.6550
45.8300	1416.3325
45.8400	1543.4125
45.8500	1467.3700
45.8600	1283.0650
45.8700	1359.8175
45.8800	1393.4675
45.8900	1343.8500
45.9000	1259.7575
45.9100	1303.2450
45.9200	1306.9500
45.9300	1247.2725
45.9400	1195.6975
45.9500	1342.4175
45.9600	1405.0300
45.9700	1219.8725
45.9800	1233.3325
45.9900	1249.2925
46.0000	1294.3700
46.0100	1219.0725
46.0200	1280.9675
46.0300	1212.6600
46.0400	1263.5075
46.0500	1259.4550
46.0600	1312.5800
46.0700	1357.2525
46.0800	1285.3500
46.0900	1140.6250
46.1000	1128.0650
46.1100	1250.0000
46.1200	1281.0500
46.1300	1413.5675
46.1400	1384.5425
46.1500	1295.0725
46.1600	1187.6875
46.1700	1170.1925
46.1800	1336.3975
46.1900	1343.8825
46.2000	1334.9775
46.2100	1425.8025
46.2200	1460.5900
46.2300	1439.3975
46.2400	1451.5400
46.2500	1401.4450
46.2600	1462.2500
46.2700	1369.6725
46.2800	1404.3250
46.2900	1529.9225
46.3000	1654.7250
46.3100	1573.1900
46.3200	1444.0550
46.3300	1387.0100
46.3400	1273.6725
46.3500	1365.6175
46.3600	1289.2250
46.3700	1319.6050
46.3800	1350.9300
46.3900	1433.3325
46.4000	1445.0125
46.4100	1526.2175
46.4200	1620.9350
46.4300	1454.3325
46.4400	1336.9200
46.4500	1439.1075
46.4600	1504.1125
46.4700	1668.9650
46.4800	1597.1325
46.4900	1551.8650
46.5000	1417.1250
46.5100	1514.2375
46.5200	1620.2675
46.5300	1791.4950
46.5400	1738.6875
46.5500	1688.9775
46.5600	1685.7000
46.5700	1552.9925
46.5800	1686.4275
46.5900	1833.1200
46.6000	1688.9800
46.6100	1833.3925
46.6200	2016.6575
46.6300	2111.0800
46.6400	2172.1925
46.6500	2216.5400
46.6600	2302.7500
46.6700	2352.3375
46.6800	2536.0700
46.6900	2590.9625
46.7000	2794.5500
46.7100	2796.5650
46.7200	2958.1350
46.7300	3016.2300
46.7400	3175.5625
46.7500	3547.8200
46.7600	3471.4875
46.7700	3628.8825
46.7800	3877.3575
46.7900	3917.3350
46.8000	3817.3725
46.8100	3802.3300
46.8200	4209.0250
46.8300	4478.2300
46.8400	4711.3975
46.8500	4667.5650
46.8600	4690.8250
46.8700	5261.4350
46.8800	5288.1225
46.8900	5664.0125
46.9000	6089.6150
46.9100	6144.6975
46.9200	6755.1675
46.9300	6806.5275
46.9400	7074.7250
46.9500	7947.4475
46.9600	8603.5625
46.9700	9343.2175
46.9800	9860.8450
46.9900	10561.0650
47.0000	11724.7550
47.0100	12823.7925
47.0200	13660.3075
47.0300	14700.4400
47.0400	16227.2875
47.0500	17771.8175
47.0600	20282.2850
47.0700	23708.9175
47.0800	27713.7975
47.0900	32292.1500
47.1000	39140.3325
47.1100	47953.0025
47.1200	58903.4125
47.1300	71553.6525
47.1400	86097.9700
47.1500	97741.1475
47.1600	110516.3450
47.1700	119537.2875
47.1800	126905.3650
47.1900	132114.6550
47.2000	135259.8625
47.2100	132822.6325
47.2200	123110.7100
47.2300	109825.5250
47.2400	97578.0875
47.2500	88690.0400
47.2600	83166.0025
47.2700	80716.8000
47.2800	78353.5375
47.2900	76231.1950
47.3000	76039.3000
47.3100	75402.9900
47.3200	73963.9100
47.3300	70522.7875
47.3400	64712.9550
47.3500	56635.8725
47.3600	48243.0725
47.3700	39331.8200
47.3800	32357.1850
47.3900	26558.5250
47.4000	22035.3175
47.4100	18029.9275
47.4200	16095.1925
47.4300	12995.1800
47.4400	10816.7875
47.4500	9815.8050
47.4600	8748.9525
47.4700	8026.1000
47.4800	7404.8400
47.4900	6477.8025
47.5000	6518.9075
47.5100	6303.3775
47.5200	6115.0675
47.5300	5463.2150
47.5400	5530.2325
47.5500	5345.2425
47.5600	4939.6500
47.5700	4623.8625
47.5800	4436.9675
47.5900	4315.3450
47.6000	4044.4575
47.6100	3776.8725
47.6200	3739.7750
47.6300	3727.6550
47.6400	3294.4800
47.6500	2918.7950
47.6600	2939.7025
47.6700	2972.7475
47.6800	2887.3325
47.6900	2751.5825
47.7000	2420.8650
47.7100	2414.4200
47.7200	2183.3625
47.7300	2266.7050
47.7400	2045.7825
47.7500	2139.5400
47.7600	2166.8325
47.7700	2037.6600
47.7800	1933.5950
47.7900	1818.7125
47.8000	1806.8300
47.8100	1630.8950
47.8200	1767.7850
47.8300	1994.4400
47.8400	1807.1425
47.8500	1616.6675
47.8600	1642.7000
47.8700	1805.3800
47.8800	1601.9900
47.8900	1656.3600
47.9000	1946.0425
47.9100	1898.9125
47.9200	1747.0000
47.9300	1594.1175
47.9400	1536.3175
47.9500	1445.0275
47.9600	1558.5900
47.9700	1744.1900
47.9800	1671.0350
47.9900	1442.3000
48.0000	1404.4425
48.0100	1555.1875
48.0200	1447.5950
48.0300	1300.0000
48.0400	1307.5825
48.0500	1370.4450
48.0600	1401.8825
48.0700	1412.9125
48.0800	1377.7175
48.0900	1320.2725
48.1000	1224.1050
48.1100	1303.7275
48.1200	1455.5775
48.1300	1364.8250
48.1400	1331.6375
48.1500	1196.1475
48.1600	1300.0000
48.1700	1305.4550
48.1800	1342.7500
48.1900	1294.1750
48.2000	1368.9250
48.2100	1241.0250
48.2200	1161.2975
48.2300	1136.2850
48.2400	1285.7775
48.2500	1180.8400
48.2600	1307.0650
48.2700	1370.1875
48.2800	1396.4925
48.2900	1361.4200
48.3000	1327.1225
48.3100	1414.9300
48.3200	1408.6550
48.3300	1467.8075
48.3400	1331.6150
48.3500	1313.2400
48.3600	1279.9175
48.3700	1246.5950
48.3800	1235.3250
48.3900	1389.8575
48.4000	1286.5225
48.4100	1173.3825
48.4200	1246.7175
48.4300	1366.6675
48.4400	1356.6975
48.4500	1261.7000
48.4600	1216.6675
48.4700	1218.3100
48.4800	1228.4175
48.4900	1184.9650
48.5000	1204.8800
48.5100	1251.6200
48.5200	1266.6675
48.5300	1258.6175
48.5400	1178.5200
48.5500	1144.5225
48.5600	1253.1850
48.5700	1259.5300
48.5800	1053.8875
48.5900	1235.8200
48.6000	1101.5700
48.6100	1126.0500
48.6200	1211.9925
48.6300	1160.4550
48.6400	1096.9050
48.6500	1071.2900
48.6600	1118.2025
48.6700	1137.9225
48.6800	1177.2375
48.6900	1140.9625
48.7000	1369.7175
48.7100	1234.8400
48.7200	1253.0025
48.7300	1284.8300
48.7400	1294.0400
48.7500	1202.1575
48.7600	887.7700
48.7700	948.0650
48.7800	1086.7900
48.7900	970.4675
48.8000	1202.2675
48.8100	1391.2950
48.8200	1285.5475
48.8300	1137.6525
48.8400	1199.1050
48.8500	1346.6700
48.8600	1131.9100
48.8700	1106.7475
48.8800	1019.7600
48.8900	1231.9275
48.9000	1225.0675
48.9100	1306.9050
48.9200	1202.7775
48.9300	1238.8675
48.9400	1287.5975
48.9500	1137.6475
48.9600	994.5325
48.9700	952.3900
48.9800	1170.7325
48.9900	1212.6175
49.0000	1161.2875
49.0100	1087.9500
49.0200	963.3350
49.0300	1117.9950
49.0400	1146.5575
49.0500	1290.7825
49.0600	1180.7100
49.0700	1143.4700
49.0800	1062.7650
49.0900	1015.3725
49.1000	1000.0000
49.1100	1005.1350
49.1200	1048.7725
49.1300	835.8775
49.1400	893.2775
49.1500	1210.3575
49.1600	1125.7950
49.1700	1042.0875
49.1800	1146.2650
49.1900	1104.9600
49.2000	1156.7925
49.2100	1035.7900
49.2200	1077.6775
49.2300	1209.3600
49.2400	1115.4550
49.2500	1103.6200
49.2600	1151.2025
49.2700	1171.4500
49.2800	1225.0000
49.2900	1110.7400
49.3000	1041.5900
49.3100	1138.2575
49.3200	995.0225
49.3300	1144.1825
49.3400	1066.6675
49.3500	1075.8875
49.3600	1188.5275
49.3700	1023.0575
49.3800	895.8325
49.3900	1062.1425
49.4000	1007.8775
49.4100	1117.7875
49.4200	1113.2675
49.4300	852.1925
49.4400	1114.4600
49.4500	1081.1375
49.4600	1046.7200
49.4700	1004.3500
49.4800	1073.1600
49.4900	1169.8975
49.5000	1211.3075
49.5100	1121.6050
49.5200	959.5475
49.5300	1094.7225
49.5400	999.8625
49.5500	765.6725
49.5600	1008.3175
49.5700	1122.9900
49.5800	976.9550
49.5900	1134.3575
49.6000	1143.8900
49.6100	1054.0525
49.6200	1107.5975
49.6300	968.6700
49.6400	1007.9750
49.6500	1133.3325
49.6600	1133.3325
49.6700	1129.4100
49.6800	1067.6425
49.6900	1081.3925
49.7000	1048.0700
49.7100	1020.5050
49.7200	1074.7425
49.7300	935.2325
49.7400	976.1075
49.7500	1121.1300
49.7600	921.3350
49.7700	1002.7850
49.7800	1047.2300
49.7900	995.4125
49.8000	916.6675
49.8100	916.6675
49.8200	921.1775
49.8300	1002.6900
49.8400	1037.5200
49.8500	818.4400
49.8600	858.8100
49.8700	1020.1700
49.8800	1084.2050
49.8900	1093.9425
49.9000	985.9150
49.9100	1039.3175
49.9200	1144.9025
49.9300	1058.4450
49.9400	1218.3450
49.9500	1244.9950
49.9600	1149.1700
49.9700	1126.7425
49.9800	1005.7300
49.9900	1116.6675
50.0000	1109.3925
50.0100	967.4700
50.0200	982.5350
50.0300	965.8750
50.0400	950.0000
50.0500	953.1300
50.0600	1021.3300
50.0700	1113.5775
50.0800	1065.3400
50.0900	1375.7150
50.1000	1211.3700
50.1100	1093.2350
50.1200	970.1525
50.1300	1390.3625
50.1400	1178.9175
50.1500	1087.7200
50.1600	1184.7850
50.1700	1217.3875
50.1800	1235.4800
50.1900	1280.4900
50.2000	1218.0775
50.2100	1247.9000
50.2200	1196.5225
50.2300	1111.8350
50.2400	994.5200
50.2500	868.7075
50.2600	926.1150
50.2700	1139.2825
50.2800	885.3275
50.2900	941.2500
50.3000	1130.0600
50.3100	1048.0500
50.3200	997.4225
50.3300	931.4150
50.3400	882.0650
50.3500	856.2950
50.3600	1016.0425
50.3700	996.9025
50.3800	914.2100
50.3900	850.6100
50.4000	867.8750
50.4100	901.1975
50.4200	941.0575
50.4300	1151.1775
50.4400	1178.0775
50.4500	1031.0175
50.4600	967.2400
50.4700	983.3325
50.4800	979.9475
50.4900	886.6875
50.5000	982.7800
50.5100	969.4125
50.5200	1048.9125
50.5300	1013.4325
50.5400	917.2000
50.5500	939.1550
50.5600	1114.0450
50.5700	1032.2950
50.5800	1002.5725
50.5900	1084.8625
50.6000	1129.2975
50.6100	999.0000
50.6200	971.1175
50.6300	1118.1350
50.6400	1162.7900
50.6500	1030.9350
50.6600	952.8475
50.6700	1048.1200
50.6800	981.4750
50.6900	921.2675
50.7000	1082.4225
50.7100	1045.0475
50.7200	869.7825
50.7300	983.7725
50.7400	999.5650
50.7500	985.0550
50.7600	1048.2975
50.7700	979.9675
50.7800	852.4950
50.7900	953.6975
50.8000	1100.8125
50.8100	1132.9325
50.8200	1115.4775
50.8300	1066.2750
50.8400	1049.6125
50.8500	1032.9525
50.8600	1016.2900
50.8700	1003.3475
50.8800	1147.7975
50.8900	1047.8250
50.9000	946.0675
50.9100	770.8975
50.9200	967.0150
50.9300	984.7050
50.9400	1049.3250
50.9500	1017.6675
50.9600	1064.3675
50.9700	949.6775
50.9800	937.1600
50.9900	1132.3925
51.0000	1078.6950
51.0100	836.0725
51.0200	983.0325
51.0300	966.0775
51.0400	933.0425
51.0500	918.9475
51.0600	1050.5600
51.0700	1082.5075
51.0800	1033.6050
51.0900	1050.0000
51.1000	1048.1700
51.1100	936.4125
51.1200	1131.3200
51.1300	999.7525
51.1400	984.7875
51.1500	1082.3825
51.1600	1015.9675
51.1700	965.2975
51.1800	868.6750
51.1900	1016.4475
51.2000	999.1450
51.2100	931.6600
51.2200	801.6350
51.2300	934.1325
51.2400	1000.3900
51.2500	1032.7625
51.2600	982.7775
51.2700	932.9725
51.2800	899.2950
51.2900	834.1900
51.3000	917.3325
51.3100	984.3050
51.3200	1082.2325
51.3300	966.5150
51.3400	949.7050
51.3500	916.5225
51.3600	900.9700
51.3700	1015.8625
51.3800	917.0550
51.3900	965.4225
51.4000	799.4000
51.4100	717.4725
51.4200	834.1075
51.4300	949.1525
51.4400	816.6675
51.4500	817.4400
51.4600	950.3675
51.4700	1015.7950
51.4800	849.8350
51.4900	817.5250
51.5000	1000.4400
51.5100	1099.9300
51.5200	1083.2050
51.5300	1049.2850
51.5400	850.6600
51.5500	1049.6975
51.5600	949.4975
51.5700	766.5025
51.5800	700.0375
51.5900	717.0825
51.6000	933.2525
51.6100	883.3550
51.6200	899.9450
51.6300	849.9875
51.6400	833.3525
51.6500	866.6925
51.6600	966.6650
51.6700	900.0200
51.6800	1033.2600
51.6900	1066.6400
51.7000	933.4800
51.7100	883.4025
51.7200	966.5300
51.7300	750.4175
51.7400	833.1500
51.7500	982.9625
51.7600	866.9875
51.7700	833.4350
51.7800	849.9450
51.7900	916.4300
51.8000	949.8725
51.8100	900.2050
51.8200	883.4050
51.8300	966.2800
51.8400	784.2325
51.8500	915.9750
51.8600	750.9075
51.8700	816.2850
51.8800	998.9025
51.8900	983.4375
51.9000	900.5450
51.9100	999.3200
51.9200	1016.5500
51.9300	1016.6675
51.9400	1016.6675
51.9500	884.3825
51.9600	999.0500
51.9700	851.2600
51.9800	965.6550
51.9900	917.1125
52.0000	850.6150
52.0100	850.0000
52.0200	916.0175
52.0300	817.6675
52.0400	915.6400
52.0500	850.7025
52.0600	1014.8650
52.0700	934.2550
52.0800	785.0325
52.0900	849.2275
52.1000	800.5925
52.1100	800.0000
52.1200	849.3800
52.1300	850.0000
52.1400	932.2575
52.1500	785.3125
52.1600	783.3325
52.1700	849.0850
52.1800	899.3000
52.1900	916.4300
52.2000	982.3675
52.2100	950.4925
52.2200	753.0050
52.2300	832.0600
52.2400	1030.2225
52.2500	836.4950
52.2600	702.1425
52.2700	831.1550
52.2800	833.3325
52.2900	915.2625
52.3000	900.2850
52.3100	981.8850
52.3200	917.8425
52.3300	867.5625
52.3400	1013.9425
52.3500	885.7900
52.3600	965.1100
52.3700	999.3700
52.3800	852.8800
52.3900	817.3150
52.4000	800.3275
52.4100	767.3325
52.4200	815.6550
52.4300	881.9675
52.4400	964.9375
52.4500	836.1325
52.4600	702.8350
52.4700	928.3125
52.4800	868.1175
52.4900	719.9700
52.5000	879.6200
52.5100	1046.2425
52.5200	1033.7125
52.5300	1049.6150
52.5400	952.3300
52.5500	966.2750
52.5600	917.8575
52.5700	981.7275
52.5800	950.8100
52.5900	868.7150
52.6000	996.6875
52.6100	1032.4975
52.6200	952.1125
52.6300	868.8000
52.6400	834.1950
52.6500	784.6375
52.6600	799.5600
52.6700	670.2150
52.6800	699.1050
52.6900	927.0050
52.7000	900.9125
52.7100	786.5550
52.7200	815.7375
52.7300	751.8750
52.7400	814.7750
52.7500	849.0450
52.7600	898.5550
52.7700	916.1800
52.7800	932.8425
52.7900	965.6800
52.8000	1112.1850
52.8100	1003.5150
52.8200	903.0375
52.8300	916.1550
52.8400	900.5150
52.8500	883.8525
52.8600	818.7575
52.8700	784.3875
52.8800	783.3325
52.8900	847.8575
52.9000	898.3825
52.9100	803.2625
52.9200	928.9525
52.9300	884.9900
52.9400	818.8900
52.9500	881.0925
52.9600	867.2300
52.9700	850.5675
52.9800	817.8125
52.9900	784.4875
53.0000	686.8175
53.0100	828.0700
53.0200	929.8000
53.0300	869.0375
53.0400	882.7375
53.0500	1027.9225
53.0600	872.7175
53.0700	850.6100
53.0800	785.7875
53.0900	719.1350
53.1000	845.0275
53.1100	801.8775
53.1200	783.9625
53.1300	783.3325
53.1400	927.5950
53.1500	901.2825
53.1600	900.0000
53.1700	819.9150
53.1800	864.7050
53.1900	914.6925
53.2000	804.6325
53.2100	784.0000
53.2200	719.3475
53.2300	700.6750
53.2400	795.9325
53.2500	752.0450
53.2600	797.9425
53.2700	831.9525
53.2800	881.2525
53.2900	899.3025
53.3000	979.8225
53.3100	855.6475
53.3200	834.0425
53.3300	785.4750
53.3400	926.8725
53.3500	949.2775
53.3600	806.5325
53.3700	672.5050
53.3800	794.1300
53.3900	847.7875
53.4000	706.6750
53.4100	668.1575
53.4200	730.3350
53.4300	733.3325
53.4400	781.0600
53.4500	894.6700
53.4600	804.5925
53.4700	688.7200
53.4800	699.2275
53.4900	843.0050
53.5000	818.2300
53.5100	705.4950
53.5200	700.0000
53.5300	715.8725
53.5400	748.4075
53.5500	861.0625
53.5600	961.8375
53.5700	919.0925
53.5800	678.8550
53.5900	730.0675
53.6000	860.1050
53.6100	866.6675
53.6200	834.9900
53.6300	975.8450
53.6400	856.6875
53.6500	960.7900
53.6600	903.3750
53.6700	915.8200
53.6800	916.6675
53.6900	853.4200
53.7000	929.0375
53.7100	854.3150
53.7200	929.0000
53.7300	822.7600
53.7400	800.8750
53.7500	784.2125
53.7600	799.1175
53.7700	815.7800
53.7800	863.9975
53.7900	740.4825
53.8000	843.7175
53.8100	850.0000
53.8200	723.9075
53.8300	763.9400
53.8400	1050.2375
53.8500	909.1650
53.8600	805.5225
53.8700	941.6825
53.8800	792.6125
53.8900	799.0675
53.9000	831.4625
53.9100	911.9700
53.9200	775.1550
53.9300	939.5850
53.9400	1075.7275
53.9500	1083.3325
53.9600	1130.4600
53.9700	1070.5150
53.9800	878.2550
53.9900	929.4550
54.0000	823.4800
54.0100	973.5625
54.0200	1108.8200
54.0300	1053.9375
54.0400	971.6075
54.0500	1060.7150
54.0600	1082.3375
54.0700	1114.6675
54.0800	1101.0025
54.0900	1115.6600
54.1000	1007.0750
54.1100	874.7825
54.1200	1070.0975
54.1300	1020.7525
54.1400	750.7675
54.1500	874.0700
54.1600	930.2350
54.1700	1089.6350
54.1800	1131.2525
54.1900	1117.7100
54.2000	1085.4275
54.2100	1098.9475
54.2200	1037.5525
54.2300	1033.3325
54.2400	1033.3325
54.2500	1080.1350
54.2600	1114.5275
54.2700	1132.2600
54.2800	1133.3325
54.2900	961.8875
54.3000	1012.3300
54.3100	985.5100
54.3200	1061.2075
54.3300	1019.9525
54.3400	969.9625
54.3500	1169.0000
54.3600	1089.9700
54.3700	1052.2200
54.3800	1174.4250
54.3900	1198.8825
54.4000	1028.9950
54.4100	1001.1250
54.4200	1062.1550
54.4300	1066.6675
54.4400	1082.1975
54.4500	1036.7500
54.4600	1064.3825
54.4700	1035.6250
54.4800	1079.8850
54.4900	943.7125
54.5000	948.8425
54.5100	996.5175
54.5200	1062.0100
54.5300	1066.6675
54.5400	1035.6750
54.5500	1064.3175
54.5600	896.2950
54.5700	914.3025
54.5800	978.5925
54.5900	1200.0200
54.6000	1030.9775
54.6100	985.7250
54.6200	1014.2675
54.6300	939.3500
54.6400	948.7925
54.6500	888.1750
54.6600	976.0500
54.6700	1029.6800
54.6800	1017.8875
54.6900	954.8975
54.7000	980.8775
54.7100	1075.9450
54.7200	1129.6275
54.7300	963.6225
54.7400	1073.3975
54.7500	1052.4900
54.7600	1188.7600
54.7700	1045.8575
54.7800	1033.3325
54.7900	971.7050
54.8000	997.4750
54.8100	1154.0025
54.8200	1182.0625
54.8300	998.6150
54.8400	1137.2300
54.8500	1226.9300
54.8600	1202.5675
54.8700	1076.9650
54.8800	1051.2900
54.8900	957.7650
54.9000	1042.2125
54.9100	1050.0000
54.9200	957.8275
54.9300	996.0750
54.9400	1092.1300
54.9500	1100.0000
54.9600	1069.3025
54.9700	1020.6325
54.9800	985.9850
54.9900	1121.3750
55.0000	1210.0050
55.0100	1201.3350
55.0200	1230.6550
55.0300	1095.4150
55.0400	1098.6550
55.0500	992.7775
55.0600	1029.2750
55.0700	1247.6825
55.0800	1174.8225
55.0900	1181.9700
55.1000	1259.8350
55.1100	1251.3700
55.1200	1204.1200
55.1300	1092.9675
55.1400	991.6125
55.1500	1136.1675
55.1600	1073.6000
55.1700	1066.6675
55.1800	1143.0350
55.1900	1073.6500
55.2000	1051.4000
55.2100	1065.2625
55.2200	1036.1475
55.2300	1094.3600
55.2400	1161.0125
55.2500	1136.1675
55.2600	1087.5925
55.2700	1235.7650
55.2800	1173.8000
55.2900	1258.0875
55.3000	1144.8000
55.3100	1209.4825
55.3200	1292.8000
55.3300	1208.6600
55.3400	1245.6600
55.3500	1265.2175
55.3600	1327.5200
55.3700	1394.1725
55.3800	1339.1725
55.3900	1272.5200
55.4000	1342.6675
55.4100	1258.8175
55.4200	1386.7425
55.4300	1384.8100
55.4400	1444.0825
55.4500	1510.7350
55.4600	1880.9975
55.4700	1704.1850
55.4800	1683.3325
55.4900	1941.2350
55.5000	1921.1650
55.5100	1856.0100
55.5200	1895.4825
55.5300	2157.6800
55.5400	2259.1050
55.5500	2327.2700
55.5600	2318.1850
55.5700	2150.0750
55.5800	2421.0200
55.5900	2722.4875
55.6000	2871.0800
55.6100	2777.4125
55.6200	2842.3100
55.6300	2698.7475
55.6400	2910.1650
55.6500	3522.9675
55.6600	3704.2575
55.6700	3671.3300
55.6800	3545.7925
55.6900	3654.1825
55.7000	3968.7225
55.7100	3984.9000
55.7200	4285.2625
55.7300	4618.5325
55.7400	4755.6300
55.7500	4781.7525
55.7600	4572.1625
55.7700	5107.9800
55.7800	5558.6775
55.7900	5554.7775
55.8000	5745.9225
55.8100	6068.0225
55.8200	6205.4525
55.8300	6668.5125
55.8400	7559.9350
55.8500	8749.0325
55.8600	9544.0100
55.8700	10534.6525
55.8800	11400.6700
55.8900	12731.8750
55.9000	15032.3600
55.9100	17883.0000
55.9200	20917.7550
55.9300	25515.2875
55.9400	30912.1975
55.9500	35746.8375
55.9600	43441.6675
55.9700	51847.2975
55.9800	58929.3950
55.9900	67017.3200
56.0000	74647.1300
56.0100	79286.3625
56.0200	81321.8975
56.0300	81754.9850
56.0400	79428.9625
56.0500	76078.1300
56.0600	73409.9125
56.0700	67979.5775
56.0800	62874.9350
56.0900	56988.6375
56.1000	50212.5975
56.1100	43856.3250
56.1200	40012.7900
56.1300	39784.7150
56.1400	40832.6025
56.1500	43104.5575
56.1600	43738.9375
56.1700	43678.6400
56.1800	44130.2125
56.1900	41671.7300
56.2000	39993.2650
56.2100	37741.1800
56.2200	34227.9400
56.2300	30205.1575
56.2400	24914.5700
56.2500	20706.6325
56.2600	17103.4950
56.2700	12927.2550
56.2800	10140.4575
56.2900	7971.8550
56.3000	7108.5800
56.3100	6138.5075
56.3200	5451.8150
56.3300	5189.5325
56.3400	5196.4750
56.3500	4752.9475
56.3600	4342.4300
56.3700	4329.7925
56.3800	4243.9775
56.3900	3801.5275
56.4000	3482.0375
56.4100	3464.8850
56.4200	3243.4525
56.4300	3038.1325
56.4400	3091.0425
56.4500	3129.7450
56.4600	2880.5600
56.4700	2879.7325
56.4800	2407.7125
56.4900	2543.1825
56.5000	2418.0950
56.5100	2206.8950
56.5200	2109.0775
56.5300	2040.6075
56.5400	2137.2525
56.5500	2046.1025
56.5600	1899.7775
56.5700	1794.3125
56.5800	1798.1675
56.5900	1681.3525
56.6000	1592.5275
56.6100	1612.9825
56.6200	1542.5550
56.6300	1444.4175
56.6400	1448.1500
56.6500	1435.1875
56.6600	1418.5225
56.6700	1401.8600
56.6800	1237.1475
56.6900	1157.4600
56.7000	1371.9825
56.7100	1370.4075
56.7200	1292.7000
56.7300	1224.1725
56.7400	1216.6675
56.7500	1142.7450
56.7600	1325.4950
56.7700	1335.2200
56.7800	1274.2300
56.7900	1266.6675
56.8000	1340.5175
56.8100	1217.0950
56.8200	1170.4700
56.8300	1137.1425
56.8400	1192.3675
56.8500	1273.7800
56.8600	1106.2975
56.8700	1186.5850
56.8800	1082.0200
56.8900	1214.1125
56.9000	1071.1750
56.9100	1035.2600
56.9200	900.7075
56.9300	898.0675
56.9400	988.3825
56.9500	970.5450
56.9600	937.2175
56.9700	1006.9425
56.9800	1178.5775
56.9900	1155.8500
57.0000	1150.0000
57.0100	1105.8675
57.0200	982.3375
57.0300	878.4350
57.0400	969.5825
57.0500	895.1350
57.0600	1177.2700
57.0700	1025.6450
57.0800	1088.1475
57.0900	967.8050
57.1000	979.3725
57.1100	1056.7475
57.1200	1066.6675
57.1300	890.5375
57.1400	881.3400
57.1500	956.6925
57.1600	1025.3425
57.1700	1048.0000
57.1800	976.6825
57.1900	820.0600
57.2000	990.5550
57.2100	1060.6325
57.2200	1008.0575
57.2300	1029.3000
57.2400	1077.2750
57.2500	1024.7550
57.2600	943.4575
57.2700	977.2500
57.2800	910.1525
57.2900	914.6325
57.3000	887.4050
57.3100	927.2175
57.3200	947.9575
57.3300	862.2650
57.3400	966.9575
57.3500	895.6300
57.3600	795.6475
57.3700	768.7225
57.3800	868.9300
57.3900	1000.1825
57.4000	987.4600
57.4100	954.1325
57.4200	964.5975
57.4300	966.6675
57.4400	864.5175
57.4500	995.9000
57.4600	929.1425
57.4700	887.4975
57.4800	941.6625
57.4900	1124.9525
57.5000	1004.2325
57.5100	925.0375
57.5200	931.2375
57.5300	933.3325
57.5400	918.7675
57.5500	974.9200
57.5600	983.3325
57.5700	794.0775
57.5800	824.8875
57.5900	789.6750
57.6000	1001.5850
57.6100	1062.4275
57.6200	877.5850
57.6300	835.4575
57.6400	935.1100
57.6500	833.7050
57.6600	845.7350
57.6700	893.5950
57.6800	798.2975
57.6900	855.9650
57.7000	779.5250
57.7100	882.8350
57.7200	754.8150
57.7300	951.0725
57.7400	910.7675
57.7500	885.4900
57.7600	883.3325
57.7700	781.7950
57.7800	795.6725
57.7900	959.5025
57.8000	867.3525
57.8100	806.5150
57.8200	857.9700
57.8300	881.1575
57.8400	825.3850
57.8500	889.0900
57.8600	900.0000
57.8700	914.4800
57.8800	887.7125
57.8900	955.7050
57.9000	908.7800
57.9100	914.4700
57.9200	931.1325
57.9300	774.2300
57.9400	938.0000
57.9500	865.4550
57.9600	821.0875
57.9700	874.4825
57.9800	1042.2975
57.9900	922.1800
58.0000	856.6625
58.0100	821.1125
58.0200	758.9025
58.0300	677.8075
58.0400	868.7700
58.0500	856.7000
58.0600	821.1375
58.0700	758.9525
58.0800	778.8525
58.0900	869.8725
58.1000	926.5950
58.1100	962.1700
58.1200	808.0950
58.1300	812.1600
58.1400	931.9525
58.1500	863.5525
58.1600	648.3225
58.1700	688.6825
58.1800	728.8000
58.1900	747.7325
58.2000	893.9550
58.2100	815.9150
58.2200	828.7800
58.2300	761.3925
58.2400	778.7700
58.2500	812.1000
58.2600	816.6675
58.2700	787.9100
58.2800	754.5825
58.2900	750.0000
58.3000	864.9650
58.3100	811.4925
58.3200	742.5375
58.3300	819.5125
58.3400	862.0550
58.3500	766.1600
58.3600	764.3550
58.3700	680.5475
58.3800	810.1725
58.3900	761.5925
58.4000	764.3450
58.4100	694.9500
58.4200	726.3550
58.4300	790.6875
58.4400	857.3425
58.4500	909.6675
58.4600	845.0125
58.4700	733.0350
58.4800	788.2975
58.4900	800.0000
58.5000	742.7150
58.5100	761.9700
58.5200	852.5650
58.5300	938.2350
58.5400	892.7550
58.5500	826.0975
58.5600	730.8275
58.5700	773.8825
58.5800	740.4275
58.5900	761.9325
58.6000	780.9625
58.6100	726.1550
58.6200	788.1250
58.6300	657.1050
58.6400	676.1950
58.6500	883.3175
58.6600	845.2550
58.6700	790.4950
58.6800	697.6700
58.6900	583.4075
58.7000	666.5750
58.7100	811.7650
58.7200	833.3325
58.7300	804.8025
58.7400	842.7900
58.7500	721.6550
58.7600	771.2900
58.7700	883.1225
58.7800	885.7475
58.7900	712.3225
58.8000	740.3275
58.8100	721.5075
58.8200	688.1800
58.8300	839.9900
58.8400	852.4275
58.8500	807.2900
58.8600	785.7650
58.8700	925.6525
58.8800	807.7050
58.8900	712.1975
58.9000	913.3725
58.9100	878.8875
58.9200	824.0075
58.9300	859.3200
58.9400	781.3750
58.9500	937.2225
58.9600	810.3500
58.9700	769.1250
58.9800	681.4325
58.9900	723.4800
59.0000	804.3400
59.0100	717.2750
59.0200	714.1975
59.0300	801.8325
59.0400	632.1725
59.0500	670.9475
59.0600	740.0825
59.0700	721.6300
59.0800	801.7600
59.0900	759.9475
59.1000	750.0000
59.1100	792.5250
59.1200	800.0000
59.1300	800.0000
59.1400	785.8325
59.1500	726.6700
59.1600	773.3225
59.1700	712.5250
59.1800	742.4775
59.1900	764.1575
59.2000	752.5125
59.2100	594.3275
59.2200	679.8650
59.2300	784.8850
59.2400	672.6925
59.2500	621.7150
59.2600	701.5100
59.2700	674.2525
59.2800	709.0750
59.2900	773.2025
59.3000	769.2025
59.3100	752.5375
59.3200	778.2525
59.3300	684.4625
59.3400	610.1775
59.3500	670.6000
59.3600	697.4500
59.3700	685.8850
59.3800	669.2200
59.3900	638.4450
59.4000	703.8750
59.4100	688.4550
59.4200	697.4375
59.4300	700.0000
59.4400	883.2900
59.4500	846.1825
59.4600	692.3850
59.4700	708.9450
59.4800	702.5775
59.4900	742.2650
59.5000	792.2575
59.5100	785.9175
59.5200	755.1700
59.5300	665.5275
59.5400	621.8475
59.5500	532.2200
59.5600	572.9550
59.5700	625.5425
59.5800	647.4000
59.5900	706.2600
59.6000	758.8550
59.6100	724.4850
59.6200	618.2575
59.6300	698.3950
59.6400	927.4775
59.6500	798.0450
59.6600	780.7150
59.6700	741.1925
59.6800	747.3775
59.6900	778.0850
59.7000	685.0500
59.7100	722.8200
59.7200	789.4775
59.7300	771.9325
59.7400	696.5075
59.7500	557.0700
59.7600	673.6050
59.7700	742.0750
59.7800	750.0000
59.7900	735.9800
59.8000	621.1875
59.8100	656.0650
59.8200	764.7625
59.8300	839.3800
59.8400	793.9625
59.8500	769.3250
59.8600	724.6525
59.8700	618.6475
59.8800	754.0050
59.8900	727.3400
59.9000	674.6775
59.9100	652.6725
59.9200	650.0000
59.9300	580.0525
59.9400	566.6675
59.9500	692.5325
59.9600	674.7175
59.9700	708.6075
59.9800	646.7750
59.9900	605.3800
60.0000	725.7650
60.0100	791.9150
60.0200	744.1225
60.0300	537.7900
60.0400	583.7900
60.0500	697.7400
60.0600	800.4325
60.0700	774.7900
60.0800	724.7975
60.0900	688.7575
60.1000	669.3825
60.1100	778.2650
60.1200	841.8425
60.1300	780.2725
60.1400	669.0650
60.1500	663.9400
60.1600	708.4825
60.1700	786.3500
60.1800	813.9350
60.1900	719.1400
60.2000	672.1400
60.2100	792.0200
60.2200	760.9625
60.2300	805.6950
60.2400	886.2750
60.2500	705.1300
60.2600	597.0800
60.2700	708.5675
60.2800	677.6825
60.2900	708.3975
60.3000	674.9400
60.3100	722.2925
60.3200	649.9075
60.3300	605.5300
60.3400	641.7000
60.3500	677.7950
60.3600	766.7075
60.3700	838.9075
60.3800	752.7625
60.3900	663.8875
60.4000	636.1125
60.4100	688.8725
60.4200	824.9425
60.4300	836.1200
60.4400	722.3075
60.4500	686.1250
60.4600	627.8375
60.4700	630.5375
60.4800	536.2450
60.4900	544.4025
60.5000	660.9225
60.5100	600.1525
60.5200	652.6400
60.5300	735.9625
60.5400	736.1425
60.5500	677.9150
60.5600	583.5500
60.5700	622.0675
60.5800	577.9400
60.5900	622.0525
60.6000	647.1775
60.6100	705.3675
60.6200	647.4675
60.6300	605.6575
60.6400	641.5075
60.6500	622.3325
60.6600	824.1375
60.6700	783.6925
60.6800	794.3200
60.6900	634.1000
60.7000	613.8225
60.7100	561.3850
60.7200	467.0875
60.7300	643.4300
60.7400	641.8900
60.7500	674.7700
60.7600	807.6250
60.7700	736.6775
60.7800	661.4425
60.7900	732.8225
60.8000	680.9925
60.8100	542.4700
60.8200	516.6675
60.8300	737.3925
60.8400	797.1275
60.8500	744.8350
60.8600	829.8550
60.8700	753.4925
60.8800	650.6250
60.8900	647.1150
60.9000	622.4400
60.9100	616.6675
60.9200	644.2200
60.9300	718.8725
60.9400	512.9800
60.9500	618.1375
60.9600	746.3750
60.9700	601.4775
60.9800	497.8475
60.9900	565.9025
61.0000	638.3725
61.0100	622.4850
61.0200	726.7100
61.0300	832.5200
61.0400	753.7425
61.0500	568.3450
61.0600	492.0925
61.0700	524.5675
61.0800	547.0750
61.0900	604.9625
61.1000	644.1450
61.1100	553.8450
61.1200	560.8025
61.1300	539.2025
61.1400	547.0625
61.1500	769.6525
61.1600	748.0350
61.1700	719.6100
61.1800	675.5000
61.1900	666.6675
61.2000	680.3850
61.2100	751.9125
61.2200	643.2450
61.2300	671.5125
61.2400	724.4625
61.2500	760.7475
61.2600	739.2550
61.2700	678.5200
61.2800	584.4600
61.2900	552.9675
61.3000	632.1825
61.3100	732.1700
61.3200	626.7650
61.3300	613.6900
61.3400	602.9775
61.3500	709.4925
61.3600	664.9100
61.3700	677.3650
61.3800	655.9725
61.3900	622.6425
61.4000	698.7250
61.4100	716.6675
61.4200	661.9775
61.4300	622.6600
61.4400	575.6625
61.4500	703.3275
61.4600	719.6700
61.4700	648.3575
61.4800	715.2925
61.4900	746.9900
61.5000	695.3775
61.5100	615.0650
61.5200	668.2575
61.5300	778.8800
61.5400	800.0000
61.5500	677.1925
61.5600	690.9300
61.5700	713.6425
61.5800	771.2225
61.5900	728.7850
61.6000	675.7625
61.6100	734.8325
61.6200	586.4275
61.6300	618.1450
61.6400	701.4675
61.6500	689.4175
61.6600	710.5800
61.6700	703.0450
61.6800	700.0000
61.6900	631.9175
61.7000	643.8950
61.7100	731.6750
61.7200	695.5575
61.7300	628.9000
61.7400	630.2725
61.7500	742.1675
61.7600	657.8475
61.7700	633.3325
61.7800	551.7450
61.7900	574.1225
61.8000	624.1150
61.8100	660.5175
61.8200	598.7175
61.8300	583.3325
61.8400	596.9200
61.8500	518.4975
61.8600	540.7450
61.8700	645.0575
61.8800	598.7775
61.8900	732.6650
61.9000	739.5200
61.9100	638.3325
61.9200	616.6675
61.9300	779.4775
61.9400	748.8400
61.9500	665.5175
61.9600	650.0000
61.9700	595.7625
61.9800	610.4475
61.9900	562.4450
62.0000	563.5525
62.0100	526.0125
62.0200	543.7650
62.0300	550.0000
62.0400	509.3650
62.0500	594.8000
62.0600	603.1250
62.0700	627.0775
62.0800	565.6500
62.0900	644.7450
62.1000	707.2650
62.1100	608.4200
62.1200	664.5050
62.1300	737.4400
62.1400	736.4750
62.1500	584.5850
62.1600	590.5625
62.1700	600.0000
62.1800	681.1000
62.1900	645.9425
62.2000	633.3325
62.2100	552.2700
62.2200	560.3500
62.2300	607.1850
62.2400	616.6675
62.2500	697.6800
62.2600	689.6650
62.2700	642.8375
62.2800	660.3250
62.2900	666.6675
62.3000	545.2375
62.3100	597.6075
62.3200	643.6425
62.3300	609.5425
62.3400	559.5475
62.3500	550.0000
62.3600	550.0000
62.3700	603.9125
62.3800	657.0950
62.3900	734.0350
62.4000	615.2825
62.4100	542.9250
62.4200	694.9475
62.4300	733.3325
62.4400	612.1600
62.4500	489.1025
62.4600	466.6675
62.4700	493.5825
62.4800	553.8225
62.4900	580.1200
62.5000	690.9450
62.5100	676.3175
62.5200	585.9825
62.5300	607.0025
62.5400	656.9975
62.5500	653.2250
62.5600	730.6350
62.5700	615.6275
62.5800	543.0275
62.5900	573.6325
62.6000	529.6075
62.6100	637.5300
62.6200	666.6675
62.6300	505.5650
62.6400	547.2050
62.6500	647.1925
62.6600	599.5725
62.6700	623.5850
62.6800	566.2575
62.6900	657.3025
62.7000	710.1550
62.7100	676.4400
62.7200	613.0400
62.7300	600.0000
62.7400	653.6125
62.7500	706.8700
62.7600	663.0725
62.7700	676.7925
62.7800	616.3600
62.7900	666.9625
62.8000	750.2875
62.8100	579.2250
62.8200	506.5600
62.8300	566.9225
62.8400	596.7150
62.8500	613.3800
62.8600	549.7750
62.8700	533.3325
62.8800	600.2050
62.8900	616.6675
62.9000	643.4075
62.9100	636.6325
62.9200	579.8675
62.9300	593.3950
62.9400	506.4650
62.9500	590.2150
62.9600	643.3825
62.9700	636.6450
62.9800	633.3325
62.9900	513.1650
63.0000	536.7325
63.0100	536.6525
63.0200	533.3325
63.0300	586.7100
63.0400	653.3675
63.0500	773.3850
63.0600	653.2850
63.0700	483.3075
63.0800	543.3375
63.0900	633.3250
63.1000	623.3400
63.1100	590.0125
63.1200	636.6350
63.1300	636.6775
63.1400	593.3675
63.1500	583.3325
63.1600	623.2850
63.1700	606.7025
63.1800	546.7475
63.1900	559.9550
63.2000	673.1425
63.2100	566.9275
63.2200	599.8600
63.2300	629.9700
63.2400	540.2250
63.2500	636.3600
63.2600	626.7750
63.2700	709.7325
63.2800	640.2825
63.2900	683.1225
63.3000	646.8450
63.3100	606.7600
63.3200	586.7150
63.3300	623.1825
63.3400	673.1750
63.3500	643.4975
63.3600	540.3950
63.3700	490.1175
63.3800	549.6975
63.3900	593.2075
63.4000	653.0750
63.4100	494.2025
63.4200	423.4700
63.4300	522.7650
63.4400	536.7400
63.4500	586.3675
63.4600	639.7700
63.4700	676.5075
63.4800	736.3425
63.4900	657.2475
63.5000	567.0925
63.5100	629.4775
63.5200	597.0250
63.5300	596.5750
63.5400	600.0000
63.5500	586.7625
63.5600	609.8050
63.5700	576.9650
63.5800	526.9725
63.5900	556.3550
63.6000	500.5275
63.6100	509.7850
63.6200	476.9950
63.6300	585.6600
63.6400	603.4475
63.6500	547.1300
63.6600	572.9800
63.6700	622.9725
63.6800	699.3900
63.6900	703.4575
63.7000	647.1725
63.7100	554.1025
63.7200	506.9275
63.7300	579.2050
63.7400	600.0000
63.7500	494.4250
63.7600	532.6400
63.7700	602.7700
63.7800	695.8100
63.7900	729.8550
63.8000	654.2150
63.8100	554.2275
63.8200	651.9750
63.8300	643.7925
63.8400	620.1550
63.8500	643.0200
63.8600	623.6525
63.8700	708.8725
63.8800	522.6125
63.8900	493.0025
63.9000	486.8350
63.9100	601.8075
63.9200	620.1725
63.9300	550.8675
63.9400	612.2800
63.9500	659.6450
63.9600	640.3600
63.9700	633.3325
63.9800	659.6325
63.9900	627.2250
64.0000	537.7950
64.0100	556.0950
64.0200	619.2300
64.0300	672.7500
64.0400	617.6475
64.0500	626.2700
64.0600	659.6000
64.0700	561.6200
64.0800	546.4625
64.0900	576.2525
64.1000	662.0800
64.1100	643.9650
64.1200	567.7325
64.1300	576.2375
64.1400	557.1000
64.1500	576.2275
64.1600	635.7800
64.1700	636.8900
64.1800	554.6875
64.1900	507.1225
64.2000	552.4150
64.2100	553.5650
64.2200	536.9000
64.2300	585.7225
64.2400	613.0950
64.2500	603.5725
64.2600	547.6350
64.2700	480.9775
64.2800	545.1875
64.2900	645.1750
64.3000	575.0875
64.3100	667.7250
64.3200	634.6075
64.3300	538.2075
64.3400	503.5925
64.3500	552.2900
64.3600	527.4550
64.3700	529.7350
64.3800	546.4000
64.3900	589.1925
64.4000	639.1850
64.4100	636.9400
64.4200	607.2175
64.4300	600.0000
64.4400	678.3200
64.4500	595.5900
64.4600	579.7150
64.4700	583.3325
64.4800	622.4675
64.4900	659.4200
64.5000	588.4225
64.5100	540.5900
64.5200	507.2600
64.5300	578.2050
64.5400	586.9675
64.5500	466.0625
64.5600	498.4725
64.5700	516.6675
64.5800	568.7625
64.5900	544.2675
64.6000	598.4300
64.6100	694.7700
64.6200	625.5600
64.6300	547.9475
64.6400	572.3675
64.6500	492.2700
64.6600	505.6875
64.6700	555.6800
64.6800	553.6650
64.6900	484.9975
64.7000	583.6500
64.7100	590.6750
64.7200	479.3800
64.7300	450.0000
64.7400	398.0400
64.7500	422.2950
64.7600	550.2025
64.7700	635.2675
64.7800	611.0575
64.7900	638.9375
64.8000	598.0925
64.8100	583.3325
64.8200	596.3050
64.8300	574.0600
64.8400	566.6675
64.8500	592.6000
64.8600	600.0000
64.8700	574.0750
64.8800	527.7875
64.8900	529.6250
64.9000	520.3775
64.9100	516.6675
64.9200	400.1050
64.9300	444.3600
64.9400	544.3475
64.9500	618.4450
64.9600	568.6200
64.9700	575.8800
64.9800	622.1475
64.9900	607.4600
65.0000	561.1975
65.0100	537.0675
65.0200	572.1225
65.0300	531.6225
65.0400	516.6675
65.0500	658.8200
65.0600	622.4750
65.0700	496.6500
65.0800	505.4175
65.0900	529.5800
65.1000	468.7725
65.1100	579.1000
65.1200	603.7600
65.1300	548.3775
65.1400	520.4300
65.1500	465.0600
65.1600	514.4950
65.1700	507.5400
65.1800	409.7350
65.1900	589.6150
65.2000	585.5475
65.2100	502.2250
65.2200	470.4475
65.2300	492.4350
65.2400	564.4075
65.2500	518.9350
65.2600	461.3675
65.2700	424.2500
65.2800	416.6675
65.2900	532.5025
65.3000	515.1925
65.3100	474.2675
65.3200	518.1225
65.3300	674.8150
65.3400	626.6475
65.3500	638.5725
65.3600	585.7225
65.3700	579.5200
65.3800	493.3775
65.3900	530.9100
65.4000	524.3075
65.4100	593.7325
65.4200	603.8250
65.4300	510.1200
65.4400	457.6575
65.4500	488.5075
65.4600	474.3325
65.4700	594.9775
65.4800	633.3325
65.4900	569.2000
65.5000	575.6475
65.5100	660.2650
65.5200	670.5125
65.5300	576.9425
65.5400	601.2625
65.5500	526.9750
65.5600	589.6775
65.5700	629.4750
65.5800	633.3325
65.5900	594.9200
65.6000	532.1250
65.6100	542.2650
65.6200	652.3800
65.6300	593.7650
65.6400	541.0800
65.6500	533.3325
65.6600	622.8525
65.6700	611.6400
65.6800	561.6475
65.6900	473.3100
65.7000	603.3550
65.7100	688.3325
65.7200	661.6750
65.7300	560.5900
65.7400	520.5625
65.7500	503.8975
65.7600	563.8300
65.7700	659.9150
65.7800	568.4800
65.7900	456.7775
65.8000	471.6050
65.8100	521.5975
65.8200	546.0850
65.8300	524.5000
65.8400	516.6675
65.8500	593.1400
65.8600	642.1525
65.8700	611.7775
65.8800	587.2600
65.8900	506.9150
65.9000	547.0050
65.9100	655.7900
65.9200	594.2250
65.9300	515.7575
65.9400	538.1750
65.9500	575.4450
65.9600	532.4525
65.9700	631.1300
65.9800	577.6550
65.9900	473.7175
66.0000	551.6900
66.0100	621.4600
66.0200	658.7475
66.0300	641.2575
66.0400	557.1200
66.0500	444.4350
66.0600	429.3650
66.0700	446.0275
66.0800	488.0775
66.0900	512.6900
66.1000	542.0425
66.1100	511.9425
66.1200	474.6325
66.1300	504.7100
66.1400	592.7400
66.1500	540.6075
66.1600	605.3875
66.1700	595.3175
66.1800	532.6550
66.1900	478.6650
66.2000	441.3375
66.2100	559.9600
66.2200	650.6425
66.2300	565.4025
66.2400	495.3675
66.2500	546.6000
66.2600	617.2700
66.2700	582.7375
66.2800	503.4350
66.2900	546.5525
66.3000	528.7425
66.3100	478.7500
66.3200	479.3025
66.3300	521.2375
66.3400	545.9650
66.3500	524.7400
66.3600	478.7850
66.3700	479.2925
66.3800	445.4650
66.3900	496.4350
66.4000	579.7575
66.4100	562.1525
66.4200	600.4525
66.4300	616.6675
66.4400	604.0575
66.4500	600.0000
66.4600	524.3775
66.4700	575.6075
66.4800	574.8025
66.4900	528.8775
66.5000	541.8550
66.5100	650.7350
66.5200	658.1550
66.5300	650.0000
66.5400	650.0000
66.5500	549.3425
66.5600	566.9875
66.5700	482.7125
66.5800	512.8750
66.5900	596.1975
66.6000	591.5250
66.6100	570.7650
66.6200	566.6675
66.6300	629.4825
66.6400	524.3925
66.6500	533.5675
66.6600	600.2225
66.6700	641.7725
66.6800	650.0000
66.6900	562.1600
66.7000	533.3325
66.7100	545.8775
66.7200	600.1650
66.7300	579.0500
66.7400	579.2025
66.7500	558.2650
66.7600	449.7475
66.7700	504.3700
66.7800	621.0200
66.7900	524.7575
66.8000	520.9000
66.8100	595.9300
66.8200	641.7000
66.8300	612.4575
66.8400	637.5350
66.8500	662.5100
66.8600	516.5800
66.8700	441.6575
66.8800	470.8400
66.8900	508.3325
66.9000	591.6500
66.9100	654.1500
66.9200	604.2050
66.9300	645.7825
66.9400	591.7425
66.9500	554.1825
66.9600	612.4125
66.9700	595.8925
66.9800	608.2875
66.9900	703.9925
67.0000	770.7500
67.0100	671.1025
67.0200	608.3975
67.0300	649.8600
67.0400	517.1150
67.0500	479.1275
67.0600	595.4525
67.0700	546.1475
67.0800	591.3825
67.0900	666.4675
67.1000	608.6475
67.1100	570.8875
67.1200	492.0100
67.1300	541.3075
67.1400	653.7300
67.1500	633.5925
67.1600	566.9375
67.1700	550.0000
67.1800	612.1375
67.1900	645.7575
67.2000	550.6200
67.2100	578.7675
67.2200	525.4950
67.2300	524.8300
67.2400	533.3325
67.2500	520.9225
67.2600	467.0375
67.2700	512.0225
67.2800	620.1475
67.2900	526.0050
67.3000	619.7000
67.3100	592.3000
67.3200	603.8425
67.3300	604.2775
67.3400	624.7725
67.3500	732.4075
67.3600	655.2300
67.3700	554.7700
67.3800	558.0875
67.3900	628.5375
67.4000	711.8575
67.4100	745.7025
67.4200	601.6050
67.4300	512.9100
67.4400	512.3600
67.4500	578.4600
67.4600	600.0000
67.4700	562.9400
67.4800	562.3500
67.4900	739.5425
67.5000	750.6175
67.5100	646.9325
67.5200	641.3475
67.5300	650.0000
67.5400	674.6700
67.5500	621.6700
67.5600	661.6500
67.5700	621.6975
67.5800	550.7000
67.5900	508.6900
67.6000	610.8750
67.6100	650.0000
67.6200	650.0000
67.6300	785.4275
67.6400	759.4800
67.6500	487.2050
67.6600	584.5575
67.6700	699.2050
67.6800	642.8750
67.6900	628.9625
67.7000	608.7475
67.7100	673.7425
67.7200	650.8475
67.7300	608.7625
67.7400	563.1525
67.7500	611.4000
67.7600	633.3325
67.7700	645.6075
67.7800	637.7275
67.7900	621.0650
67.8000	555.3325
67.8100	619.1825
67.8200	650.0000
67.8300	686.7750
67.8400	663.2325
67.8500	674.5075
67.8600	634.3300
67.8700	641.1625
67.8800	527.5475
67.8900	471.0900
67.9000	613.5450
67.9100	666.6675
67.9200	752.3075
67.9300	661.0150
67.9400	641.1250
67.9500	601.0950
67.9600	595.5575
67.9700	624.4425
67.9800	669.9875
67.9900	658.9025
68.0000	662.2125
68.0100	691.0875
68.0200	700.0000
68.0300	626.7725
68.0400	587.7975
68.0500	510.1375
68.0600	593.1025
68.0700	743.0775
68.0800	697.9950
68.0900	678.8550
68.1000	634.5900
68.1100	641.0325
68.1200	650.0000
68.1300	674.3550
68.1400	707.6825
68.1500	582.7775
68.1600	496.8275
68.1700	544.1650
68.1800	688.3025
68.1900	684.6900
68.2000	593.7200
68.2100	603.1325
68.2200	640.9725
68.2300	601.4025
68.2400	559.0400
68.2500	562.1450
68.2600	615.2325
68.2700	718.3025
68.2800	786.4075
68.2900	727.2025
68.3000	687.8700
68.3100	743.9700
68.3200	803.0400
68.3300	756.0575
68.3400	672.7400
68.3500	637.8850
68.3600	766.5800
68.3700	852.9975
68.3800	794.0200
68.3900	694.0375
68.4000	775.5850
68.4100	756.1700
68.4200	660.7550
68.4300	621.2400
68.4400	640.8475
68.4500	722.5275
68.4600	774.1700
68.4700	735.0050
68.4800	680.4300
68.4900	690.8200
68.5000	796.5900
68.5100	748.8375
68.5200	789.0750
68.5300	804.6025
68.5400	884.4350
68.5500	916.6675
68.5600	796.1025
68.5700	798.2150
68.5800	888.9700
68.5900	952.8100
68.6000	978.7125
68.6100	911.0800
68.6200	991.6850
68.6300	985.1875
68.6400	942.6000
68.6500	1041.6075
68.6600	1119.4150
68.6700	1073.2100
68.6800	1062.0225
68.6900	1090.7050
68.7000	1148.0650
68.7100	1238.7450
68.7200	1326.7175
68.7300	1374.0150
68.7400	1347.3200
68.7500	1345.3350
68.7600	1457.9850
68.7700	1440.0225
68.7800	1404.6750
68.7900	1423.9800
68.8000	1481.2800
68.8100	1511.9850
68.8200	1660.4375
68.8300	1848.4225
68.8400	2115.5475
68.8500	2068.3075
68.8600	2004.6975
68.8700	2311.1175
68.8800	2660.6325
68.8900	2893.5225
68.9000	3213.0575
68.9100	3723.1100
68.9200	4158.2100
68.9300	4959.6650
68.9400	5878.3775
68.9500	6849.8700
68.9600	8016.8400
68.9700	9846.7675
68.9800	11757.9300
68.9900	13428.6425
69.0000	15076.0650
69.0100	16432.3975
69.0200	17415.1625
69.0300	18489.0275
69.0400	18459.2075
69.0500	17721.0525
69.0600	16792.5975
69.0700	15504.6375
69.0800	13421.6475
69.0900	11262.4775
69.1000	9655.4100
69.1100	7870.2825
69.1200	6412.9450
69.1300	5717.1350
69.1400	5547.6775
69.1500	5557.0975
69.1600	6029.9450
69.1700	6952.9700
69.1800	7713.0400
69.1900	8315.4400
69.2000	9076.6675
69.2100	9981.0300
69.2200	10214.4175
69.2300	9950.9925
69.2400	9861.8550
69.2500	9522.9775
69.2600	8779.0725
69.2700	7704.1700
69.2800	6679.8250
69.2900	5571.2700
69.3000	4369.3125
69.3100	3555.1875
69.3200	3118.2425
69.3300	2650.0400
69.3400	2287.1775
69.3500	2093.6150
69.3600	1778.2025
69.3700	1607.5950
69.3800	1606.9550
69.3900	1380.5075
69.4000	1212.5050
69.4100	1324.9550
69.4200	1300.7425
69.4300	1195.8925
69.4400	1154.8750
69.4500	1197.1575
69.4600	1075.2325
69.4700	981.3175
69.4800	1025.5650
69.4900	955.7875
69.5000	928.4400
69.5100	1051.0375
69.5200	1123.5350
69.5300	921.5800
69.5400	739.2450
69.5500	770.5475
69.5600	964.5650
69.5700	974.5750
69.5800	844.2650
69.5900	823.4900
69.6000	704.1725
69.6100	696.9550
69.6200	704.9300
69.6300	805.5925
69.6400	756.1650
69.6500	787.0225
69.6600	722.8825
69.6700	601.2950
69.6800	672.1150
69.6900	763.5200
69.7000	795.0425
69.7100	835.1200
69.7200	697.8500
69.7300	656.7350
69.7400	736.8500
69.7500	673.1125
69.7600	691.7875
69.7700	658.2275
69.7800	703.4400
69.7900	756.6950
69.8000	661.5625
69.8100	640.0175
69.8200	661.6725
69.8300	643.3300
69.8400	610.0025
69.8500	588.3375
69.8600	653.2850
69.8700	671.6775
69.8800	631.7100
69.8900	628.3150
69.9000	575.1050
69.9100	526.7150
69.9200	586.5025
69.9300	686.4825
69.9400	658.5025
69.9500	644.9625
69.9600	719.7575
69.9700	750.0000
69.9800	680.2800
69.9900	673.2325
70.0000	648.4925
70.0100	644.9425
70.0200	580.3600
70.0300	573.2075
70.0400	548.5325
70.0500	568.1250
70.0600	652.8950
70.0700	602.2000
70.0800	566.6675
70.0900	589.8350
70.1000	704.2250
70.1100	645.8025
70.1200	542.1300
70.1300	597.6625
70.1400	610.1975
70.1500	553.7425
70.1600	648.9425
70.1700	688.4425
70.1800	637.1150
70.1900	639.7700
70.2000	650.0000
70.2100	650.0000
70.2200	580.7525
70.2300	492.3100
70.2400	512.8050
70.2500	625.5850
70.2600	551.3875
70.2700	557.6225
70.2800	583.3325
70.2900	617.8875
70.3000	587.2750
70.3100	658.7575
70.3200	688.4925
70.3300	648.8175
70.3400	610.3300
70.3500	668.9900
70.3600	654.0200
70.3700	552.8925
70.3800	620.0600
70.3900	609.2425
70.4000	479.9975
70.4100	456.2900
70.4200	489.6175
70.4300	408.2275
70.4400	446.9450
70.4500	506.2625
70.4600	551.0525
70.4700	578.1250
70.4800	583.3325
70.4900	537.5275
70.5000	493.7700
70.5100	529.1125
70.5200	550.0000
70.5300	550.0000
70.5400	527.1300
70.5500	596.6875
70.5600	644.7625
70.5700	604.3000
70.5800	594.7550
70.5900	634.2550
70.6000	627.1700
70.6100	491.1400
70.6200	433.3325
70.6300	467.5475
70.6400	620.1500
70.6500	660.5375
70.6600	593.0250
70.6700	578.0575
70.6800	526.3925
70.6900	511.3850
70.7000	505.2850
70.7100	556.8900
70.7200	526.4600
70.7300	477.2575
70.7400	387.0925
70.7500	486.3750
70.7600	572.7225
70.7700	492.4700
70.7800	506.7725
70.7900	601.4400
70.8000	553.9000
70.8100	459.9450
70.8200	546.7425
70.8300	600.0000
70.8400	645.3375
70.8500	553.3600
70.8600	545.3100
70.8700	476.0750
70.8800	455.9750
70.8900	534.5700
70.9000	498.7825
70.9100	545.8400
70.9200	538.1050
70.9300	482.7550
70.9400	511.8675
70.9500	635.0050
70.9600	604.2775
70.9700	589.2475
70.9800	566.1400
70.9900	561.2825
71.0000	487.7050
71.0100	416.1700
71.0200	512.7325
71.0300	668.0950
71.0400	626.5350
71.0500	594.5975
71.0600	633.7800
71.0700	582.4625
71.0800	527.4950
71.0900	572.9150
71.1000	588.7550
71.1100	605.8200
71.1200	537.9900
71.1300	522.4725
71.1400	578.2625
71.1500	600.0000
71.1600	543.8700
71.1700	494.2225
71.1800	516.9900
71.1900	555.7650
71.2000	488.1800
71.2100	528.4625
71.2200	633.9000
71.2300	610.6575
71.2400	560.9350
71.2500	605.9750
71.2600	633.3325
71.2700	610.9575
71.2800	566.4450
71.2900	527.6375
71.3000	516.6675
71.3100	460.7925
71.3200	489.1900
71.3300	550.1700
71.3400	510.8425
71.3500	494.4950
71.3600	522.3150
71.3700	577.9500
71.3800	566.5475
71.3900	572.2950
71.4000	494.1800
71.4100	483.4225
71.4200	566.8250
71.4300	577.7325
71.4400	533.2750
71.4500	550.0475
71.4600	522.1725
71.4700	444.3975
71.4800	516.7200
71.4900	488.8725
71.5000	483.3300
71.5100	466.6800
71.5200	427.7925
71.5300	483.2675
71.5400	616.5350
71.5500	622.2950
71.5600	644.3600
71.5700	600.1475
71.5800	489.0850
71.5900	472.1600
71.6000	538.7150
71.6100	533.4475
71.6200	549.8750
71.6300	555.6000
71.6400	572.1250
71.6500	505.9200
71.6600	367.1650
71.6700	349.8250
71.6800	488.2050
71.6900	561.0450
71.7000	478.3300
71.7100	499.5650
71.7200	632.6525
71.7300	628.1725
71.7400	633.0850
71.7500	550.7725
71.7600	455.9125
71.7700	510.4625
71.7800	561.0150
71.7900	544.6425
71.8000	533.3325
71.8100	566.3475
71.8200	572.3325
71.8300	489.6800
71.8400	428.0100
71.8500	471.6225
71.8600	478.0250
71.8700	477.6500
71.8800	494.3150
71.8900	554.8875
71.9000	561.3850
71.9100	539.0300
71.9200	566.2350
71.9300	561.4050
71.9400	615.7650
71.9500	573.3000
71.9600	533.3325
71.9700	533.3325
71.9800	511.4400
71.9900	500.0000
72.0000	489.0600
72.0100	516.1450
72.0200	522.4000
72.0300	516.6675
72.0400	527.5925
72.0500	544.2575
72.0600	539.0800
72.0700	489.6675
72.0800	532.1450
72.0900	533.9375
72.1000	571.2000
72.1100	556.3875
72.1200	511.5350
72.1300	532.6900
72.1400	604.4650
72.1500	589.7750
72.1600	577.5525
72.1700	572.4500
72.1800	512.2700
72.1900	428.9525
72.2000	410.8725
72.2100	394.9275
72.2200	459.3950
72.2300	532.5875
72.2400	539.1400
72.2500	620.1800
72.2600	677.5200
72.2700	542.2950
72.2800	499.2050
72.2900	462.4550
72.3000	455.0125
72.3100	499.1750
72.3200	527.5000
72.3300	522.5050
72.3400	484.1900
72.3500	477.4900
72.3600	461.6950
72.3700	493.2625
72.3800	484.2300
72.3900	477.4750
72.4000	504.9450
72.4100	559.8750
72.4200	486.1450
72.4300	422.5375
72.4400	459.8350
72.4500	515.7000
72.4600	565.6900
72.4700	583.3325
72.4800	540.2175
72.4900	548.9925
72.5000	642.0700
72.5100	597.1825
72.5200	528.4700
72.5300	581.2400
72.5400	648.9425
72.5500	559.1125
72.5600	618.2725
72.5700	629.5900
72.5800	589.2550
72.5900	529.6225
72.6000	500.0000
72.6100	478.5300
72.6200	541.7925
72.6300	551.1475
72.6400	468.9800
72.6500	486.9450
72.6600	527.3850
72.6700	490.4700
72.6800	477.3800
72.6900	494.0425
72.7000	500.0000
72.7100	467.8925
72.7200	460.7000
72.7300	552.2325
72.7400	493.0775
72.7500	508.1575
72.7600	571.3725
72.7700	529.9200
72.7800	510.6800
72.7900	505.9900
72.8000	457.3100
72.8100	454.6725
72.8200	487.9975
72.8300	478.6750
72.8400	498.6450
72.8500	537.9800
72.8600	518.0425
72.8700	521.3000
72.8800	543.9800
72.8900	507.4275
72.9000	504.6125
72.9100	559.2125
72.9200	625.8650
72.9300	607.4800
72.9400	477.0675
72.9500	469.7825
72.9600	531.8600
72.9700	486.3000
72.9800	471.2275
72.9900	589.4375
73.0000	543.9300
73.0100	483.3325
73.0200	525.7350
73.0300	571.1950
73.0400	498.5800
73.0500	502.9550
73.0600	565.0950
73.0700	562.1650
73.0800	571.1625
73.0900	625.6450
73.1000	628.8500
73.1100	563.8100
73.1200	522.7650
73.1300	558.9250
73.1400	593.8950
73.1500	536.6500
73.1600	584.4425
73.1700	591.1250
73.1800	598.3125
73.1900	574.4850
73.2000	507.8300
73.2100	493.8725
73.2200	626.4300
73.2300	731.5975
73.2400	613.1175
73.2500	522.8075
73.2600	548.2350
73.2700	598.2250
73.2800	585.1175
73.2900	493.0725
73.3000	460.5100
73.3100	498.1875
73.3200	590.1925
73.3300	633.3325
73.3400	559.8500
73.3500	579.6325
73.3600	658.6300
73.3700	725.2850
73.3800	718.5450
73.3900	658.0725
73.4000	559.9850
73.4100	558.5675
73.4200	489.0850
73.4300	527.5525
73.4400	531.0050
73.4500	489.5375
73.4600	483.3325
73.4700	546.0700
73.4800	551.9750
73.4900	512.4325
73.5000	594.0225
73.5100	650.0000
73.5200	608.2375
73.5300	635.5200
73.5400	697.9700
73.5500	695.8050
73.5600	672.9050
73.5700	624.9675
73.5800	547.8900
73.5900	568.7600
73.6000	568.7525
73.6100	622.8875
73.6200	625.0300
73.6300	568.7825
73.6400	539.5975
73.6500	626.9325
73.6600	589.7625
73.6700	543.7275
73.6800	633.1250
73.6900	600.2325
73.7000	518.8475
73.7100	531.1450
73.7200	477.3525
73.7300	422.9575
73.7400	458.1550
73.7500	555.9175
73.7600	620.7325
73.7700	612.6075
73.7800	579.2800
73.7900	566.6675
73.8000	545.9600
73.8100	605.7875
73.8200	681.0425
73.8300	658.6225
73.8400	581.6250
73.8500	622.3700
73.8600	625.3250
73.8700	620.6650
73.8800	643.6625
73.8900	650.0000
73.9000	608.7075
73.9100	573.0125
73.9200	628.5700
73.9300	625.4100
73.9400	579.3775
73.9500	566.6675
73.9600	556.3625
73.9700	550.0000
73.9800	529.4025
73.9900	506.3700
74.0000	489.7075
74.0100	575.9450
74.0200	674.4825
74.0300	586.8750
74.0400	568.0725
74.0500	620.5575
74.0600	540.8575
74.0700	534.6950
74.0800	576.9350
74.0900	511.4700
74.1000	579.5625
74.1100	660.2600
74.1200	635.8950
74.1300	637.1750
74.1400	619.2450
74.1500	518.0125
74.1600	517.8950
74.1700	601.2125
74.1800	551.4175
74.1900	510.2375
74.2000	526.9000
74.2100	523.1025
74.2200	506.4400
74.2300	551.1250
74.2400	654.8875
74.2500	669.3425
74.2600	578.4875
74.2700	635.4675
74.2800	648.9475
74.2900	596.2525
74.3000	603.7425
74.3100	667.6750
74.3200	679.6025
74.3300	615.6875
74.3400	552.7550
74.3500	574.0950
74.3600	549.0625
74.3700	567.5900
74.3800	640.7250
74.3900	676.8450
74.4000	601.9275
74.4100	560.1725
74.4200	536.1575
74.4300	567.5025
74.4400	691.4800
74.4500	739.8375
74.4600	723.1750
74.4700	726.8225
74.4800	652.1100
74.4900	579.7000
74.5000	546.3725
74.5100	452.1775
74.5200	470.9925
74.5300	577.5000
74.5400	596.3950
74.5500	603.6000
74.5600	738.2325
74.5700	806.5400
74.5800	729.1250
74.5900	663.0900
74.6000	650.0000
74.6100	599.4175
74.6200	617.2350
74.6300	660.1100
74.6400	696.9925
74.6500	666.1400
74.6600	491.8950
74.6700	571.7000
74.6800	663.1400
74.6900	639.9050
74.7000	572.7825
74.7100	563.6000
74.7200	563.1600
74.7300	610.5000
74.7400	680.2425
74.7500	689.9225
74.7600	673.2575
74.7700	646.5225
74.7800	683.6825
74.7900	736.8000
74.8000	729.8700
74.8100	686.4800
74.8200	636.4900
74.8300	646.8350
74.8400	676.7200
74.8500	693.3850
74.8600	659.8075
74.8700	583.1050
74.8800	670.5175
74.8900	659.6375
74.9000	589.9625
74.9100	723.8250
74.9200	666.1800
74.9300	676.9950
74.9400	709.8925
74.9500	603.1375
74.9600	560.0225
74.9700	596.7250
74.9800	616.6675
74.9900	626.6800
75.0000	613.3100
75.0100	579.9825
75.0200	606.6925
75.0300	623.3300
75.0400	586.6650
75.0500	626.6575
75.0600	686.6575
75.0700	670.0200
75.0800	659.9900
75.0900	696.6300
75.1000	696.6950
75.1100	683.3325
75.1200	623.4500
75.1300	643.2000
75.1400	713.2600
75.1500	693.4425
75.1600	576.9350
75.1700	516.6675
75.1800	606.3525
75.1900	786.2175
75.2000	866.6675
75.2100	777.0500
75.2200	656.9375
75.2300	566.9050
75.2400	493.5325
75.2500	586.0375
75.2600	706.4475
75.2700	693.5625
75.2800	636.8475
75.2900	725.9800
75.3000	800.0000
75.3100	800.0000
75.3200	780.1400
75.3300	677.3175
75.3400	596.8150
75.3500	623.0250
75.3600	620.2400
75.3700	570.2475
75.3800	629.3225
75.3900	742.8125
75.4000	773.4225
75.4100	796.3900
75.4200	836.4775
75.4300	760.8700
75.4400	620.7925
75.4500	606.2600
75.4600	653.1250
75.4700	686.4550
75.4800	719.7825
75.4900	693.7775
75.5000	666.6675
75.5100	716.0875
75.5200	740.1175
75.5300	792.6100
75.5400	754.3150
75.5500	640.7500
75.5600	600.0000
75.5700	639.4800
75.5800	666.6675
75.5900	637.0700
75.6000	656.1200
75.6100	643.8900
75.6200	705.3925
75.6300	815.9475
75.6400	850.0000
75.6500	909.1100
75.6600	979.5475
75.6700	921.2225
75.6800	846.9775
75.6900	931.7575
75.7000	891.7575
75.7100	678.9350
75.7200	701.3625
75.7300	911.1675
75.7400	921.3500
75.7500	1014.1025
75.7600	1008.5725
75.7700	1011.9300
75.7800	1086.3125
75.7900	1217.8400
75.8000	1319.6350
75.8100	1343.1500
75.8200	1389.2550
75.8300	1475.5350
75.8400	1536.2850
75.8500	1500.9650
75.8600	1603.9325
75.8700	1886.2475
75.8800	2006.8675
75.8900	1784.4400
75.9000	1682.3125
75.9100	1883.1625
75.9200	1970.6250
75.9300	1910.8425
75.9400	1844.1825
75.9500	1943.8750
75.9600	2043.1175
75.9700	2030.4375
75.9800	2036.2250
75.9900	2010.8925
76.0000	2149.5050
76.0100	2227.5750
76.0200	2248.8525
76.0300	2302.8700
76.0400	2277.6000
76.0500	2347.6425
76.0600	2602.1500
76.0700	2713.8125
76.0800	2748.7900
76.0900	2900.4075
76.1000	3197.9225
76.1100	3769.3400
76.1200	4290.9175
76.1300	4722.9450
76.1400	5335.7450
76.1500	6081.5575
76.1600	7033.2300
76.1700	8038.5125
76.1800	9163.6825
76.1900	11182.6775
76.2000	13865.8475
76.2100	16388.8850
76.2200	19487.8225
76.2300	23723.8700
76.2400	27592.4450
76.2500	30464.1925
76.2600	33886.1200
76.2700	36733.1050
76.2800	38305.2650
76.2900	37813.1050
76.3000	35616.4375
76.3100	32167.6475
76.3200	27391.1250
76.3300	22986.3900
76.3400	18944.1500
76.3500	15310.2625
76.3600	12637.3350
76.3700	10548.2850
76.3800	9102.8725
76.3900	8320.2850
76.4000	8122.1150
76.4100	8382.6525
76.4200	9034.5975
76.4300	9964.7425
76.4400	11323.0975
76.4500	13065.5125
76.4600	14617.7900
76.4700	16103.2025
76.4800	18054.2425
76.4900	19496.3325
76.5000	19915.0550
76.5100	19959.6750
76.5200	19715.1475
76.5300	18043.8350
76.5400	15806.2325
76.5500	13574.4000
76.5600	11541.9900
76.5700	9553.2150
76.5800	7393.7775
76.5900	6058.2275
76.6000	5199.3950
76.6100	4365.3900
76.6200	3499.5925
76.6300	2945.5275
76.6400	2881.5975
76.6500	2617.4825
76.6600	2197.3625
76.6700	2098.2375
76.6800	2114.0425
76.6900	1945.6900
76.7000	1823.6900
76.7100	1874.5125
76.7200	1791.3550
76.7300	1680.7250
76.7400	1705.2100
76.7500	1685.1625
76.7600	1621.1025
76.7700	1542.2150
76.7800	1528.8875
76.7900	1550.0000
76.8000	1530.7475
76.8100	1381.9250
76.8200	1254.4650
76.8300	1300.6825
76.8400	1301.9025
76.8500	1237.8125
76.8600	1158.9675
76.8700	1068.5925
76.8800	927.5875
76.8900	926.8925
76.9000	992.9425
76.9100	884.6975
76.9200	838.4275
76.9300	895.4825
76.9400	926.2700
76.9500	827.7075
76.9600	788.4025
76.9700	864.6625
76.9800	909.5975
76.9900	859.0900
77.0000	778.2875
77.0100	817.1525
77.0200	818.7100
77.0300	917.5925
77.0400	853.6625
77.0500	771.6825
77.0600	847.9275
77.0700	806.6625
77.0800	778.7475
77.0900	809.5800
77.1000	778.3475
77.1100	721.2650
77.1200	700.0000
77.1300	747.8750
77.1400	725.8925
77.1500	664.1900
77.1600	726.5650
77.1700	850.3175
77.1800	823.4575
77.1900	680.5700
77.2000	645.3625
77.2100	704.9200
77.2200	762.0200
77.2300	716.4075
77.2400	695.3450
77.2500	764.4550
77.2600	809.5575
77.2700	702.0075
77.2800	721.7575
77.2900	847.7600
77.3000	797.3750
77.3100	790.6300
77.3200	833.3325
77.3300	795.1475
77.3400	766.6675
77.3500	747.5800
77.3600	695.1625
77.3700	666.6675
77.3800	695.2850
77.3900	688.0500
77.4000	609.4450
77.4100	700.1675
77.4200	771.3975
77.4300	673.7350
77.4400	626.1975
77.4500	680.9850
77.4600	745.2550
77.4700	795.2500
77.4800	740.4550
77.4900	740.4850
77.5000	726.1900
77.5100	692.8550
77.5200	700.0000
77.5300	700.0000
77.5400	700.0000
77.5500	642.8950
77.5600	657.0950
77.5700	680.9700
77.5800	733.2600
77.5900	745.2850
77.6000	697.6450
77.6100	683.3325
77.6200	711.8575
77.6300	638.2625
77.6400	671.2300
77.6500	864.0550
77.6600	883.4775
77.6700	671.7975
77.6800	473.9925
77.6900	530.6625
77.7000	730.6475
77.7100	854.6550
77.7200	816.8625
77.7300	719.1925
77.7400	664.3475
77.7500	650.0000
77.7600	687.9650
77.7700	697.6875
77.7800	702.3100
77.7900	678.7175
77.8000	612.0550
77.8100	545.3950
77.8200	535.6350
77.8300	559.4825
77.8400	680.4425
77.8500	776.1475
77.8600	802.2900
77.8700	759.8000
77.8800	631.3775
77.8900	595.0925
77.9000	682.9850
77.9100	695.4425
77.9200	628.7800
77.9300	628.4125
77.9400	659.4700
77.9500	685.6025
77.9600	671.5975
77.9700	621.6025
77.9800	666.2550
77.9900	707.2025
78.0000	671.6125
78.0100	697.3075
78.0200	714.4125
78.0300	643.2450
78.0400	609.4575
78.0500	607.2100
78.0600	618.9125
78.0700	671.1525
78.0800	709.4525
78.0900	622.1425
78.1000	578.3525
78.1100	600.0000
78.1200	571.6525
78.1300	521.6575
78.1400	660.5950
78.1500	764.4425
78.1600	636.6650
78.1700	531.1125
78.1800	554.4350
78.1900	639.9800
78.2000	692.7725
78.2100	605.6100
78.2200	571.0850
78.2300	600.0000
78.2400	600.0000
78.2500	590.5650
78.2600	630.5000
78.2700	647.8025
78.2800	595.6075
78.2900	576.0975
78.3000	621.0500
78.3100	584.0025
78.3200	561.6150
78.3300	545.6300
78.3400	582.6425
78.3500	586.2150
78.3600	568.8450
78.3700	583.3325
78.3800	602.1750
78.3900	560.1475
78.4000	544.9225
78.4100	604.3375
78.4200	623.9175
78.4300	588.4200
78.4400	585.4950
78.4500	590.5875
78.4600	545.6850
78.4700	554.3125
78.4800	526.8725
78.4900	464.5150
78.5000	515.8575
78.5100	623.1100
78.5200	638.4475
78.5300	588.4525
78.5400	585.4750
78.5500	600.0000
78.5600	628.2050
78.5700	678.2025
78.5800	634.2000
78.5900	526.9400
78.6000	558.5150
78.6100	588.4750
78.6200	594.8550
78.6300	682.4300
78.6400	761.5150
78.6500	717.5850
78.6600	676.0575
78.6700	664.5525
78.6800	603.0525
78.6900	669.9425
78.7000	693.6725
78.7100	593.6800
78.7200	643.8575
78.7300	660.3575
78.7400	691.7350
78.7500	693.7050
78.7600	584.3275
78.7700	514.5725
78.7800	546.8975
78.7900	648.9850
78.8000	653.1125
78.8100	588.5375
78.8200	538.5400
78.8300	554.1650
78.8400	658.3225
78.8500	688.5475
78.8600	666.6675
78.8700	619.8125
78.8800	517.7450
78.8900	569.7225
78.9000	678.1025
78.9100	653.1650
78.9200	616.6675
78.9300	551.1125
78.9400	556.1825
78.9500	600.0000
78.9600	581.2750
78.9700	650.9150
78.9800	735.3875
78.9900	637.6925
79.0000	521.9250
79.0100	537.4275
79.0200	585.3775
79.0300	553.2250
79.0400	507.3125
79.0500	574.8250
79.0600	652.0375
79.0700	591.8575
79.0800	533.3325
79.0900	608.1275
79.1000	629.2750
79.1100	600.0000
79.1200	609.3475
79.1300	635.3575
79.1400	612.6225
79.1500	630.0500
79.1600	629.2975
79.1700	609.3425
79.1800	635.3475
79.1900	650.0000
79.2000	584.6300
79.2100	495.9825
79.2200	522.6850
79.2300	576.0025
79.2400	602.0025
79.2500	560.6650
79.2600	572.6625
79.2700	598.0025
79.2800	508.6875
79.2900	459.3300
79.3000	531.9675
79.3100	611.3175
79.3200	670.6400
79.3300	681.3475
79.3400	666.6675
79.3500	638.6950
79.3600	607.3425
79.3700	590.6775
79.3800	564.6900
79.3900	531.3600
79.4000	600.5400
79.4100	620.0750
79.4200	601.9675
79.4300	579.4025
79.4400	550.0000
79.4500	512.7425
79.4600	520.5875
79.4700	568.6250
79.4800	583.3325
79.4900	611.2650
79.5000	586.7850
79.5100	615.1600
79.5200	629.4375
79.5300	544.1600
79.5400	546.5275
79.5500	611.2475
79.5600	577.5125
79.5700	570.5425
79.5800	618.6025
79.5900	605.4325
79.6000	583.3325
79.6100	527.5400
79.6200	483.3325
79.6300	548.4100
79.6400	627.8875
79.6500	622.1150
79.6600	646.4700
79.6700	627.5775
79.6800	601.9175
79.6900	588.7950
79.7000	622.4050
79.7100	666.6675
79.7200	620.2275
79.7300	592.6200
79.7400	581.4275
79.7500	548.0975
79.7600	505.4825
79.7700	566.8800
79.7800	596.2050
79.7900	566.6675
79.8000	548.1075
79.8100	598.2850
79.8200	547.9425
79.8300	540.8825
79.8400	609.2750
79.8500	616.6675
79.8600	616.6675
79.8700	598.1200
79.8800	583.3325
79.8900	555.5200
79.9000	588.9525
79.9100	679.6775
79.9200	688.8625
79.9300	648.1325
79.9400	531.4075
79.9500	412.9400
79.9600	429.6525
79.9700	466.6675
79.9800	485.1900
79.9900	518.5225
80.0000	524.0725
80.0100	562.9600
80.0200	590.7425
80.0300	620.3600
80.0400	677.7675
80.0500	681.4900
80.0600	638.9050
80.0700	644.4250
80.0800	629.6600
80.0900	535.2450
80.1000	557.3300
80.1100	644.4125
80.1200	574.1925
80.1300	481.5075
80.1400	503.6475
80.1500	551.8225
80.1600	548.1800
80.1700	551.8175
80.1800	520.4600
80.1900	548.0150
80.2000	600.0000
80.2100	572.2850
80.2200	513.0525
80.2300	492.5700
80.2400	490.7650
80.2500	566.4375
80.2600	577.9375
80.2700	459.4800
80.2800	427.6925
80.2900	542.2950
80.3000	607.4375
80.3100	600.0000
80.3200	535.4150
80.3300	437.2075
80.3400	436.8975
80.3500	586.5675
80.3600	664.8900
80.3700	631.5575
80.3800	625.8875
80.3900	642.5525
80.4000	557.8225
80.4100	510.9825
80.4200	551.7650
80.4300	594.3100
80.4400	533.7475
80.4500	531.1525
80.4600	684.6550
80.4700	702.1975
80.4800	567.1200
80.4900	490.7925
80.5000	556.9875
80.5100	598.2550
80.5200	555.7200
80.5300	542.5375
80.5400	522.3925
80.5500	527.6025
80.5600	577.6000
80.5700	627.5975
80.5800	668.3950
80.5900	637.3500
80.6000	563.2175
80.6100	524.1400
80.6200	452.3150
80.6300	482.7275
80.6400	623.5250
80.6500	646.5750
80.6600	561.5350
80.6700	525.8550
80.6800	551.7050
80.6900	539.1125
80.7000	553.4025
80.7100	583.3325
80.7200	564.9700
80.7300	540.8200
80.7400	560.8700
80.7500	583.3325
80.7600	592.5100
80.7700	600.0000
80.7800	627.5225
80.7900	631.6550
80.8000	635.0100
80.8100	650.0000
80.8200	640.8300
80.8300	532.4825
80.8400	440.8325
80.8500	479.1625
80.8600	507.5025
80.8700	609.9600
80.8800	626.7025
80.8900	557.5050
80.9000	550.0000
80.9100	550.0000
80.9200	577.4725
80.9300	609.1550
80.9400	644.1300
80.9500	666.6675
80.9600	593.4475
80.9700	487.5775
80.9800	431.7000
80.9900	517.3000
81.0000	600.0000
81.0100	645.7300
81.0200	591.8875
81.0300	571.5275
81.0400	497.8200
81.0500	436.5625
81.0600	466.6675
81.0700	475.8050
81.0800	501.6075
81.0900	534.9375
81.1000	522.5975
81.1100	563.9300
81.1200	625.7975
81.1300	633.3325
81.1400	624.2050
81.1500	589.2825
81.1600	594.0450
81.1700	625.7925
81.1800	605.9625
81.1900	528.6000
81.2000	583.6650
81.2100	703.1450
81.2200	633.0300
81.2300	604.7025
81.2400	686.4625
81.2500	707.5525
81.2600	590.6450
81.2700	536.4475
81.2800	575.7775
81.2900	574.2250
81.3000	566.6675
81.3100	566.6675
81.3200	603.0850
81.3300	615.1275
81.3400	554.4900
81.3500	498.4650
81.3600	537.9275
81.3700	583.3325
81.3800	546.9475
81.3900	480.2875
81.4000	513.6525
81.4100	666.6775
81.4200	659.0950
81.4300	492.4425
81.4400	453.0175
81.4500	565.1100
81.4600	587.9100
81.4700	586.3325
81.4800	607.5850
81.4900	536.4375
81.5000	492.4125
81.5100	536.3100
81.5200	575.7425
81.5300	574.2600
81.5400	521.3025
81.5500	537.7625
81.5600	610.5425
81.5700	642.4025
81.5800	640.9325
81.5900	606.1375
81.6000	528.9500
81.6100	528.6450
81.6200	539.4850
81.6300	516.6675
81.6400	489.4925
81.6500	557.2300
81.6600	615.2250
81.6700	572.8400
81.6800	613.3600
81.6900	612.3675
81.7000	548.5700
81.7100	542.3800
81.7200	622.3625
81.7300	710.4650
81.7400	670.0375
81.7500	634.7475
81.7600	568.6500
81.7700	472.8875
81.7800	459.0350
81.7900	484.7350
81.8000	518.0650
81.8100	587.5175
81.8200	597.2175
81.8300	521.5275
81.8400	519.4375
81.8500	559.0250
81.8600	530.5750
81.8700	490.9800
81.8800	537.4500
81.8900	538.2450
81.9000	518.0325
81.9100	551.3625
81.9200	521.6025
81.9300	519.3775
81.9400	568.0175
81.9500	601.3475
81.9600	607.6600
81.9700	554.9800
81.9800	552.6775
81.9900	628.3375
82.0000	648.6675
82.0100	633.3325
82.0200	606.3475
82.0300	574.3400
82.0400	566.6675
82.0500	539.6950
82.0600	561.6100
82.0700	626.9600
82.0800	632.0300
82.0900	553.7850
82.1000	562.8700
82.1100	598.7075
82.1200	556.4000
82.1300	551.2850
82.1400	530.7700
82.1500	526.9175
82.1600	612.7950
82.1700	612.8550
82.1800	593.5675
82.1900	625.6325
82.2000	561.6275
82.2100	500.0000
82.2200	562.7175
82.2300	571.8775
82.2400	506.4650
82.2500	483.3325
82.2600	545.9975
82.2700	591.0500
82.2800	556.4875
82.2900	658.5825
82.3000	659.3325
82.3100	629.2650
82.3200	647.5700
82.3300	571.9725
82.3400	515.4600
82.3500	544.6750
82.3600	538.6675
82.3700	544.6550
82.3800	556.5450
82.3900	497.6250
82.4000	520.2175
82.4100	566.6675
82.4200	548.8250
82.4300	569.0100
82.4400	635.6675
82.4500	639.9200
82.4600	607.7525
82.4700	617.8225
82.4800	624.4250
82.4900	554.3175
82.5000	508.9050
82.5100	507.7625
82.5200	580.1100
82.5300	676.6975
82.5400	611.0325
82.5500	577.8075
82.5600	661.1300
82.5700	602.2025
82.5800	481.1125
82.5900	521.0925
82.6000	601.1025
82.6100	598.9025
82.6200	583.3325
82.6300	547.8225
82.6400	472.2875
82.6500	424.4600
82.6600	461.0250
82.6700	553.2175
82.6800	617.7350
82.6900	633.3325
82.7000	571.2925
82.7100	481.2225
82.7200	538.5850
82.7300	616.6675
82.7400	607.8125
82.7500	626.5550
82.7600	632.3000
82.7700	598.9725
82.7800	547.9525
82.7900	516.6675
82.8000	534.3475
82.8100	514.6450
82.8200	501.0050
82.8300	498.9975
82.8400	500.9975
82.8500	499.0075
82.8600	509.8150
82.8700	524.5075
82.8800	551.9575
82.8900	627.4350
82.9000	657.8475
82.9100	561.8425
82.9200	456.8925
82.9300	468.5775
82.9400	526.4250
82.9500	550.0000
82.9600	532.3925
82.9700	516.6675
82.9800	587.0600
82.9900	570.8300
83.0000	535.1775
83.0100	584.2500
83.0200	643.9475
83.0300	639.3975
83.0400	529.7225
83.0500	510.5775
83.0600	637.7975
83.0700	716.6675
83.0800	611.3675
83.0900	472.8050
83.1000	459.6425
83.1100	474.5650
83.1200	475.4325
83.1300	509.6200
83.1400	568.3725
83.1500	503.6675
83.1600	442.9325
83.1700	501.6775
83.1800	585.8325
83.1900	607.0900
83.2000	557.1000
83.2100	577.0450
83.2200	590.4475
83.2300	566.6675
83.2400	566.6675
83.2500	592.8625
83.2600	581.7500
83.2700	523.8200
83.2800	508.7250
83.2900	560.2750
83.3000	617.4375
83.3100	598.4675
83.3200	627.6625
83.3300	726.8875
83.3400	670.8775
83.3500	583.3325
83.3600	565.9275
83.3700	541.3000
83.3800	576.8200
83.3900	581.8875
83.4000	628.2275
83.4100	700.0000
83.4200	734.7450
83.4300	705.8800
83.4400	632.6375
83.4500	538.5625
83.4600	484.0175
83.4700	491.3275
83.4800	500.6725
83.4900	560.0025
83.5000	625.9925
83.5100	650.0000
83.5200	632.6825
83.5300	582.0425
83.5400	515.3875
83.5500	517.9350
83.5600	558.6475
83.5700	558.0225
83.5800	593.2075
83.5900	633.3325
83.6000	598.7900
83.6100	566.6675
83.6200	583.9275
83.6300	591.3725
83.6400	609.2050
83.6500	581.6075
83.6600	541.9525
83.6700	541.3850
83.6800	516.1100
83.6900	543.0450
83.7000	617.7575
83.7100	624.1900
83.7200	565.6000
83.7300	524.7350
83.7400	482.2900
83.7500	475.7725
83.7600	594.4700
83.7700	640.4075
83.7800	565.6725
83.7900	627.7025
83.8000	682.3625
83.8100	624.2825
83.8200	591.4300
83.8300	557.6325
83.8400	567.5875
83.8500	625.6800
83.8600	598.6575
83.8700	524.3375
83.8800	525.6525
83.8900	567.0950
83.9000	600.4225
83.9100	608.1250
83.9200	557.3100
83.9300	602.0150
83.9400	683.3325
83.9500	632.1625
83.9600	634.4850
83.9700	657.7675
83.9800	616.2950
83.9900	574.4525
84.0000	575.5375
84.0100	591.4900
84.0200	617.3550
84.0300	650.0000
84.0400	692.4950
84.0500	648.3750
84.0600	600.6350
84.0700	633.3325
84.0800	573.9325
84.0900	533.6325
84.1000	566.9575
84.1100	634.1875
84.1200	708.7500
84.1300	657.1150
84.1400	574.8675
84.1500	575.1275
84.1600	574.8750
84.1700	566.6675
84.1800	617.3775
84.1900	658.2175
84.2000	607.7775
84.2100	558.2250
84.2200	575.3125
84.2300	650.6050
84.2400	666.2775
84.2500	608.0525
84.2600	574.9100
84.2700	541.4075
84.2800	516.6675
84.2900	575.5575
84.3000	608.1050
84.3100	532.8975
84.3200	558.9525
84.3300	708.9200
84.3400	716.1750
84.3500	675.1750
84.3600	733.5500
84.3700	699.5950
84.3800	641.7125
84.3900	666.7525
84.4000	708.4525
84.4100	716.5950
84.4200	666.5375
84.4300	616.6100
84.4400	566.5675
84.4500	600.1675
84.4600	708.4200
84.4700	716.6125
84.4800	599.9025
84.4900	558.3625
84.5000	650.0125
84.5100	708.3325
84.5200	691.6825
84.5300	683.3150
84.5400	658.3975
84.5500	633.3000
84.5600	658.3125
84.5700	625.1225
84.5800	541.8100
84.5900	508.3000
84.6000	632.8250
84.6100	708.5350
84.6200	724.6900
84.6300	766.7625
84.6400	725.1550
84.6500	625.5025
84.6600	591.3675
84.6700	641.6025
84.6800	674.7975
84.6900	741.3075
84.7000	717.2750
84.7100	625.2400
84.7200	608.2500
84.7300	641.4025
84.7400	641.9425
84.7500	583.7175
84.7600	558.2325
84.7700	591.3525
84.7800	649.5675
84.7900	601.1250
84.8000	533.1000
84.8100	599.2750
84.8200	650.0000
84.8300	666.4075
84.8400	716.1325
84.8500	651.6500
84.8600	566.3825
84.8700	616.0825
84.8800	617.2675
84.8900	616.0500
84.9000	682.7000
84.9100	651.3025
84.9200	583.3325
84.9300	624.1425
84.9400	625.8775
84.9500	550.7200
84.9600	573.7100
84.9700	633.3325
84.9800	617.0525
84.9900	591.8650
85.0000	542.6750
85.0100	508.1275
85.0200	549.1575
85.0300	632.0450
85.0400	626.5350
85.0500	518.0075
85.0600	523.4025
85.0700	631.9375
85.0800	602.3700
85.0900	605.6775
85.1000	700.0000
85.1100	675.7525
85.1200	650.0000
85.1300	674.2225
85.1400	708.0700
85.1500	716.6675
85.1600	644.1250
85.1700	582.7775
85.1800	608.0500
85.1900	624.7125
85.2000	641.3750
85.2100	633.9250
85.2200	632.7325
85.2300	682.1125
85.2400	676.5500
85.2500	649.3700
85.2600	642.6250
85.2700	680.7425
85.2800	774.0150
85.2900	664.0025
85.3000	540.6525
85.3100	622.6000
85.3200	643.4050
85.3300	520.1900
85.3400	505.1175
85.3500	615.2200
85.3600	657.9675
85.3700	666.6675
85.3800	658.7100
85.3900	673.8550
85.4000	700.0000
85.4100	692.0575
85.4200	723.0200
85.4300	734.9375
85.4400	652.4350
85.4500	623.7675
85.4600	642.0825
85.4700	617.5075
85.4800	639.5400
85.4900	667.5275
85.5000	665.7950
85.5100	707.0125
85.5200	772.7725
85.5300	745.7200
85.5400	572.1325
85.5500	498.1575
85.5600	604.1425
85.5700	706.9225
85.5800	701.9025
85.5900	643.1100
85.6000	624.5150
85.6100	656.8600
85.6200	683.3325
85.6300	808.6450
85.6400	816.9450
85.6500	588.4500
85.6600	523.4500
85.6700	620.3000
85.6800	676.5825
85.6900	673.4025
85.7000	645.4325
85.7100	700.1875
85.7200	786.6225
85.7300	663.3150
85.7400	645.5275
85.7500	654.5150
85.7600	497.9325
85.7700	493.1000
85.7800	646.5175
85.7900	707.7475
85.8000	716.6675
85.8100	662.5075
85.8200	615.4625
85.8300	664.2375
85.8400	746.3225
85.8500	769.1400
85.8600	741.0425
85.8700	649.8450
85.8800	594.9225
85.8900	651.2800
85.9000	625.6450
85.9100	701.1700
85.9200	707.8800
85.9300	569.3150
85.9400	541.0000
85.9500	557.6600
85.9600	581.9750
85.9700	592.3525
85.9800	575.6900
85.9900	635.4025
86.0000	731.9300
86.0100	719.4950
86.0200	637.6100
86.0300	583.3325
86.0400	606.1600
86.0500	610.5225
86.0600	606.1250
86.0700	663.7000
86.0800	722.7575
86.0900	757.5800
86.1000	743.9425
86.1100	731.8050
86.1200	772.6875
86.1300	716.8750
86.1400	661.9725
86.1500	671.3950
86.1600	692.0600
86.1700	738.1325
86.1800	683.3325
86.1900	713.4200
86.2000	659.8125
86.2100	595.0575
86.2200	657.5025
86.2300	666.6675
86.2400	711.6175
86.2500	766.6675
86.2600	714.3100
86.2700	612.6325
86.2800	589.0700
86.2900	609.2050
86.3000	644.7325
86.3100	752.1450
86.3200	749.6775
86.3300	711.2875
86.3400	751.8050
86.3500	718.4850
86.3600	714.8375
86.3700	681.4475
86.3800	587.0425
86.3900	609.2000
86.4000	705.5150
86.4100	696.3975
86.4200	627.8575
86.4300	622.1250
86.4400	679.4750
86.4500	701.9425
86.4600	675.9775
86.4700	659.3175
86.4800	598.5975
86.4900	584.6925
86.5000	679.3225
86.5100	702.0175
86.5200	639.4275
86.5300	597.9550
86.5400	660.4950
86.5500	680.1750
86.5600	567.7075
86.5700	483.3325
86.5800	548.8425
86.5900	655.1500
86.6000	654.2700
86.6100	652.9625
86.6200	743.5150
86.6300	792.7550
86.6400	718.1775
86.6500	626.1000
86.6600	594.9875
86.6700	602.7650
86.6800	613.9350
86.6900	602.6975
86.7000	736.3950
86.7100	842.8075
86.7200	768.6575
86.7300	640.2575
86.7400	612.0250
86.7500	664.3325
86.7600	733.4475
86.7700	828.6100
86.7800	859.5200
86.7900	899.9700
86.8000	866.8225
86.8100	754.7075
86.8200	754.8600
86.8300	688.2225
86.8400	692.6250
86.8500	742.9025
86.8600	726.2425
86.8700	737.9175
86.8800	794.9725
86.8900	741.4300
86.9000	666.1025
86.9100	747.4450
86.9200	745.5225
86.9300	737.7900
86.9400	759.6325
86.9500	750.0000
86.9600	735.9600
86.9700	751.7325
86.9800	792.9950
86.9900	867.3175
87.0000	892.4450
87.0100	822.5400
87.0200	900.0000
87.0300	893.0300
87.0400	862.4450
87.0500	812.4675
87.0600	804.1775
87.0700	798.6300
87.0800	791.6025
87.0900	836.1475
87.1000	823.5850
87.1100	860.9800
87.1200	879.2875
87.1300	898.2775
87.1400	959.7775
87.1500	901.8250
87.1600	902.0800
87.1700	1000.0000
87.1800	938.2625
87.1900	856.8525
87.2000	866.6675
87.2100	941.8775
87.2200	947.5550
87.2300	834.1100
87.2400	890.1475
87.2500	927.2275
87.2600	891.8725
87.2700	817.2925
87.2800	920.9400
87.2900	972.8925
87.3000	946.8700
87.3100	980.1900
87.3200	1081.0425
87.3300	1206.7450
87.3400	1169.5000
87.3500	1113.4600
87.3600	1140.0550
87.3700	1244.0075
87.3800	1376.6275
87.3900	1299.6750
87.4000	1327.1375
87.4100	1396.3625
87.4200	1316.8025
87.4300	1473.3350
87.4400	1543.2725
87.4500	1620.0300
87.4600	1666.4400
87.4700	1839.6650
87.4800	1877.0900
87.4900	1819.6275
87.5000	1933.0600
87.5100	1857.8525
87.5200	1679.8600
87.5300	1798.8225
87.5400	1976.3200
87.5500	2088.9575
87.5600	2200.0000
87.5700	2101.6650
87.5800	1982.7375
87.5900	2013.7150
87.6000	2002.9275
87.6100	2092.0425
87.6200	2092.1250
87.6300	2112.6675
87.6400	2425.1525
87.6500	2529.6475
87.6600	2530.5550
87.6700	2532.3675
87.6800	2654.4525
87.6900	2805.4075
87.7000	2873.1150
87.7100	2960.6175
87.7200	3199.1075
87.7300	3434.7225
87.7400	3644.9675
87.7500	3978.1325
87.7600	4426.4650
87.7700	4931.6825
87.7800	5384.6775
87.7900	6007.8475
87.8000	6704.8825
87.8100	7740.0975
87.8200	8869.6875
87.8300	10191.1250
87.8400	12049.4925
87.8500	14270.0625
87.8600	16420.8875
87.8700	19265.8175
87.8800	22038.0150
87.8900	25073.2850
87.9000	29021.2225
87.9100	32875.1175
87.9200	36078.5925
87.9300	38466.9250
87.9400	40228.8750
87.9500	40392.3600
87.9600	38949.7150
87.9700	36187.2275
87.9800	32665.4025
87.9900	28104.2500
88.0000	23032.5350
88.0100	18136.4025
88.0200	14779.1150
88.0300	12440.5300
88.0400	10768.9325
88.0500	9255.6725
88.0600	8266.6675
88.0700	7972.5550
88.0800	7729.7550
88.0900	7963.4000
88.1000	7735.8375
88.1100	8328.9200
88.1200	9021.6400
88.1300	9609.8550
88.1400	10951.8750
88.1500	12628.3175
88.1600	13871.7150
88.1700	15054.1650
88.1800	16546.3150
88.1900	18498.9925
88.2000	20303.9400
88.2100	21085.9975
88.2200	20856.4825
88.2300	20351.2750
88.2400	19905.6100
88.2500	18453.7750
88.2600	16538.0200
88.2700	14095.4150
88.2800	11697.4925
88.2900	9554.9675
88.3000	7692.9175
88.3100	6646.6925
88.3200	5632.3675
88.3300	4629.1925
88.3400	4098.0675
88.3500	3927.7075
88.3600	3510.7025
88.3700	2912.8275
88.3800	2560.8275
88.3900	2427.5675
88.4000	2135.9750
88.4100	2051.5325
88.4200	2070.2550
88.4300	2029.6675
88.4400	2099.3200
88.4500	2049.3500
88.4600	1959.0375
88.4700	1844.2475
88.4800	1770.1550
88.4900	1638.5325
88.5000	1542.2525
88.5100	1508.5725
88.5200	1728.0750
88.5300	1698.7475
88.5400	1520.4100
88.5500	1400.7175
88.5600	1477.9975
88.5700	1415.1650
88.5800	1199.1875
88.5900	1145.0875
88.6000	1216.4550
88.6100	1205.7975
88.6200	1221.9675
88.6300	1161.0700
88.6400	1172.3450
88.6500	1183.2075
88.6600	1111.1000
88.6700	1094.4425
88.6800	1055.6000
88.6900	1022.1475
88.7000	1072.1925
88.7100	995.0650
88.7200	855.2125
88.7300	922.3400
88.7400	943.8925
88.7500	1005.9500
88.7600	960.9325
88.7700	1026.9825
88.7800	1062.2050
88.7900	939.1275
88.8000	922.0925
88.8100	900.8375
88.8200	833.3325
88.8300	838.7300
88.8400	855.3850
88.8500	823.6675
88.8600	765.5225
88.8700	860.1050
88.8800	911.3225
88.8900	878.6625
88.9000	817.3625
88.9100	799.2750
88.9200	822.7275
88.9300	831.7575
88.9400	894.7175
88.9500	835.8825
88.9600	749.1200
88.9700	809.5900
88.9800	835.2200
88.9900	766.6675
89.0000	756.2250
89.0100	722.9125
89.0200	684.4025
89.0300	655.1900
89.0400	692.5600
89.0500	703.4850
89.0600	651.5775
89.0700	766.6675
89.0800	756.3925
89.0900	697.4500
89.1000	637.1300
89.1100	688.4375
89.1200	684.7150
89.1300	665.2525
89.1400	725.3675
89.1500	818.7750
89.1600	900.0000
89.1700	859.6650
89.1800	716.3550
89.1900	600.0000
89.2000	610.0200
89.2100	628.3350
89.2200	611.6775
89.2300	619.9125
89.2400	706.4050
89.2500	795.0425
89.2600	748.7100
89.2700	651.8600
89.2800	626.5150
89.2900	659.8275
89.3000	742.1725
89.3100	814.8375
89.3200	650.0000
89.3300	664.6125
89.3400	714.5800
89.3500	754.8500
89.3600	723.1200
89.3700	616.6675
89.3800	655.2025
89.3900	778.8375
89.4000	816.4325
89.4100	728.5500
89.4200	721.4400
89.4300	714.2825
89.4400	657.1625
89.4500	638.0750
89.4600	631.0800
89.4700	616.3675
89.4800	714.1250
89.4900	735.9075
89.5000	685.9400
89.5100	692.0800
89.5200	800.0000
89.5300	758.1175
89.5400	654.6425
89.5500	624.9800
89.5600	553.6325
89.5700	631.5600
89.5800	583.3325
89.5900	624.6225
89.6000	733.3325
89.6100	710.5050
89.6200	681.8825
89.6300	748.4925
89.6400	677.3375
89.6500	612.1450
89.6600	600.0000
89.6700	649.4950
89.6800	765.3800
89.6900	680.8475
89.7000	614.5975
89.7100	691.0900
89.7200	675.5550
89.7300	708.8650
89.7400	768.7075
89.7500	813.7400
89.7600	688.6650
89.7700	697.3400
89.7800	576.2625
89.7900	667.4650
89.8000	703.6025
89.8100	653.6350
89.8200	646.9950
89.8300	754.9400
89.8400	777.8750
89.8500	666.6675
89.8600	675.2425
89.8700	712.8300
89.8800	762.7950
89.8900	774.4750
89.9000	691.5150
89.9100	704.7500
89.9200	757.5825
89.9300	583.3325
89.9400	616.9150
89.9500	695.7350
89.9600	608.2825
89.9700	545.8250
89.9800	599.9450
89.9900	654.1425
90.0000	699.7075
90.0100	783.5250
90.0200	675.8300
90.0300	500.0000
90.0400	524.5075
90.0500	579.6325
90.0600	528.8525
90.0700	578.8200
90.0800	616.6675
90.0900	656.9475
90.1000	763.2500
90.1100	675.9675
90.1200	592.0125
90.1300	566.6675
90.1400	562.6950
90.1500	569.8000
90.1600	645.1775
90.1700	659.7125
90.1800	614.7375
90.1900	736.2375
90.2000	780.4850
90.2100	732.2325
90.2200	752.2950
90.2300	642.2625
90.2400	635.9525
90.2500	700.0000
90.2600	707.6675
90.2700	714.2200
90.2800	646.1875
90.2900	625.7325
90.3000	607.5775
90.3100	633.3325
90.3200	622.0375
90.3300	609.6125
90.3400	714.9700
90.3500	762.9350
90.3600	750.0000
90.3700	712.9200
90.3800	557.4575
90.3900	496.1475
90.4000	655.1050
90.4100	842.6750
90.4200	802.0650
90.4300	713.6100
90.4400	590.5875
90.4500	613.0500
90.4600	596.3950
90.4700	583.3325
90.4800	576.1700
90.4900	535.7200
90.5000	472.6575
90.5100	458.1625
90.5200	557.0700
90.5300	600.9525
90.5400	635.0550
90.5500	537.6700
90.5600	613.1775
90.5700	606.9550
90.5800	633.3325
90.5900	654.0600
90.6000	726.4475
90.6100	720.5875
90.6200	779.4800
90.6300	696.5925
90.6400	686.7300
90.6500	693.2300
90.6600	653.1725
90.6700	603.3625
90.6800	620.0175
90.6900	629.9950
90.7000	623.3200
90.7100	653.3150
90.7200	673.2750
90.7300	696.7075
90.7400	696.4575
90.7500	736.9225
90.7600	680.0750
90.7700	682.8975
90.7800	733.8275
90.7900	653.7750
90.8000	622.4800
90.8100	710.2675
90.8200	657.8275
90.8300	559.5300
90.8400	612.6600
90.8500	688.7400
90.8600	770.7650
90.8700	701.0150
90.8800	642.6900
90.8900	689.5475
90.9000	732.1425
90.9100	781.4975
90.9200	693.8550
90.9300	657.4850
90.9400	601.4225
90.9500	581.9325
90.9600	800.0000
90.9700	778.9000
90.9800	671.3225
90.9900	601.7125
91.0000	545.2500
91.0100	614.8375
91.0200	677.4200
91.0300	661.7775
91.0400	693.2025
91.0500	574.5700
91.0600	550.7925
91.0700	639.1300
91.0800	669.5525
91.0900	668.9600
91.1000	597.1375
91.1100	600.4425
91.1200	708.8950
91.1300	805.0475
91.1400	669.4825
91.1500	666.5025
91.1600	588.9200
91.1700	619.4500
91.1800	619.4800
91.1900	563.7950
91.2000	627.8375
91.2100	605.4725
91.2200	619.7125
91.2300	587.9750
91.2400	775.2300
91.2500	711.8175
91.2600	610.7100
91.2700	666.6675
91.2800	658.7025
91.2900	616.6675
91.3000	619.2975
91.3100	628.0925
91.3200	592.1750
91.3300	552.5975
91.3400	566.6675
91.3500	592.4025
91.3600	725.6475
91.3700	668.0300
91.3800	593.4900
91.3900	660.1100
91.4000	711.6350
91.4100	678.3250
91.4200	647.5075
91.4300	620.9275
91.4400	564.8175
91.4500	654.9150
91.4600	671.1000
91.4700	617.0450
91.4800	704.5500
91.4900	635.7450
91.5000	657.2000
91.5100	688.0550
91.5200	638.0625
91.5300	754.8375
91.5400	683.3325
91.5500	697.3900
91.5600	755.3600
91.5700	592.6125
91.5800	652.3075
91.5900	664.3700
91.6000	645.4300
91.6100	618.9400
91.6200	622.0225
91.6300	559.0025
91.6400	632.3400
91.6500	724.4225
91.6600	668.8825
91.6700	685.5375
91.6800	691.2275
91.6900	650.7875
91.7000	766.6675
91.7100	764.5075
91.7200	728.5250
91.7300	574.7900
91.7400	537.9125
91.7500	693.9000
91.7600	747.7500
91.7700	631.3000
91.7800	714.6225
91.7900	581.2650
91.8000	568.7225
91.8100	607.8700
91.8200	779.2675
91.8300	731.8025
91.8400	593.9675
91.8500	546.0025
91.8600	514.6800
91.8700	507.9050
91.8800	592.2100
91.8900	787.2400
91.9000	793.3600
91.9100	612.8050
91.9200	585.2525
91.9300	600.0000
91.9400	620.8650
91.9500	788.9900
91.9600	816.4650
91.9700	683.3325
91.9800	685.1850
91.9900	705.5200
92.0000	735.3700
92.0100	611.2150
92.0200	590.1475
92.0300	777.9475
92.0400	720.8475
92.0500	614.8950
92.0600	607.0450
92.0700	678.9150
92.0800	764.2075
92.0900	587.9075
92.1000	502.2100
92.1100	671.7825
92.1200	706.5050
92.1300	626.7625
92.1400	714.9950
92.1500	701.6600
92.1600	716.6675
92.1700	715.0300
92.1800	690.2400
92.1900	596.7700
92.2000	573.0825
92.2100	633.3325
92.2200	634.9150
92.2300	632.7225
92.2400	471.3450
92.2500	519.7625
92.2600	553.0750
92.2700	566.5450
92.2800	404.5450
92.2900	463.5350
92.3000	591.0425
92.3100	511.8525
92.3200	634.8050
92.3300	654.3775
92.3400	705.7950
92.3500	762.3550
92.3600	709.5350
92.3700	631.9175
92.3800	616.6675
92.3900	615.2725
92.4000	595.8525
92.4100	554.1150
92.4200	593.1975
92.4300	524.7625
92.4400	624.6975
92.4500	714.0125
92.4600	671.4850
92.4700	537.2500
92.4800	587.2175
92.4900	629.4825
92.5000	587.1500
92.5100	633.3325
92.5200	629.5800
92.5300	583.3325
92.5400	600.5400
92.5500	806.9225
92.5600	679.7125
92.5700	638.1200
92.5800	691.7025
92.5900	586.8575
92.6000	631.0050
92.6100	600.0000
92.6200	598.8575
92.6300	584.4650
92.6400	592.1550
92.6500	492.2125
92.6600	613.3700
92.6700	566.6675
92.6800	570.9775
92.6900	623.7325
92.7000	482.2775
92.7100	477.1200
92.7200	642.6450
92.7300	781.2850
92.7400	735.8150
92.7500	514.6625
92.7600	490.2750
92.7700	600.9800
92.7800	630.2550
92.7900	848.0800
92.8000	810.9700
92.8100	715.7275
92.8200	699.0725
92.8300	682.4150
92.8400	657.5975
92.8500	506.2750
92.8600	618.4375
92.8700	651.7500
92.8800	683.3325
92.8900	685.0425
92.9000	714.1350
92.9100	668.3325
92.9200	699.1775
92.9300	683.3325
92.9400	681.7300
92.9500	642.0875
92.9600	485.6750
92.9700	537.1850
92.9800	614.3875
92.9900	568.9150
93.0000	618.8850
93.0100	668.8525
93.0200	715.2300
93.0300	682.6250
93.0400	665.9700
93.0500	650.0000
93.0600	645.9375
93.0700	548.6675
93.0800	519.9475
93.0900	599.3550
93.1000	587.1475
93.1100	680.2050
93.1200	601.2300
93.1300	636.3575
93.1400	716.0725
93.1500	697.0775
93.1600	616.6675
93.1700	608.7675
93.1800	387.2100
93.1900	504.8950
93.2000	650.5325
93.2100	667.1900
93.2200	682.3075
93.2300	648.4900
93.2400	600.9875
93.2500	631.8850
93.2600	585.2250
93.2700	652.7775
93.2800	751.8125
93.2900	814.8950
93.3000	746.5375
93.3100	614.9750
93.3200	552.4775
93.3300	652.4175
93.3400	746.8550
93.3500	617.4325
93.3600	648.5075
93.3700	583.6975
93.3800	599.6475
93.3900	584.0200
93.4000	616.3325
93.4100	600.6475
93.4200	633.3325
93.4300	633.0300
93.4400	616.0775
93.4500	585.0400
93.4600	683.8825
93.4700	716.1375
93.4800	680.5250
93.4900	498.7725
93.5000	418.3175
93.5100	535.1425
93.5200	666.6675
93.5300	665.4275
93.5400	567.6525
93.5500	650.5625
93.5600	698.0450
93.5700	516.8350
93.5800	534.9200
93.5900	700.1500
93.6000	714.9950
93.6100	517.0550
93.6200	567.2675
93.6300	650.0000
93.6400	650.1025
93.6500	666.4825
93.6600	632.8400
93.6700	533.6250
93.6800	600.1275
93.6900	633.1700
93.7000	583.2450
93.7100	550.2475
93.7200	666.6400
93.7300	650.1650
93.7400	816.6300
93.7500	733.3450
93.7600	633.4025
93.7700	666.6250
93.7800	733.2125
93.7900	766.5875
93.8000	766.6675
93.8100	700.2300
93.8200	832.7975
93.8300	783.5625
93.8400	700.4275
93.8500	700.0000
93.8600	716.5625
93.8700	716.6675
93.8800	799.3900
93.8900	700.7850
93.9000	633.8925
93.9100	666.3675
93.9200	633.6500
93.9300	732.3300
93.9400	749.8250
93.9500	684.0725
93.9600	683.3325
93.9700	749.1875
93.9800	799.3650
93.9900	619.0950
94.0000	633.1025
94.0100	616.9050
94.0200	748.0200
94.0300	651.5375
94.0400	600.7950
94.0500	616.3925
94.0600	682.2025
94.0700	797.9600
94.0800	849.1000
94.0900	751.8525
94.1000	684.6025
94.1100	732.3550
94.1200	945.6475
94.1300	803.0925
94.1400	718.4275
94.1500	814.5025
94.1600	865.5575
94.1700	801.5125
94.1800	816.2800
94.1900	898.0250
94.2000	948.7900
94.2100	1063.7825
94.2200	871.7125
94.2300	817.9525
94.2400	946.5000
94.2500	982.4425
94.2600	967.1200
94.2700	934.2575
94.2800	981.9200
94.2900	902.3975
94.3000	948.5375
94.3100	1014.6825
94.3200	1032.8300
94.3300	920.2525
94.3400	1061.9800
94.3500	921.4275
94.3600	1013.4450
94.3700	1113.3950
94.3800	1100.5525
94.3900	1309.3675
94.4000	1268.3750
94.4100	1186.2225
94.4200	1263.7375
94.4300	1186.3025
94.4400	1327.9150
94.4500	1349.3900
94.4600	1366.0475
94.4700	1382.7075
94.4800	1463.4975
94.4900	1466.6675
94.5000	1514.7175
94.5100	1468.6400
94.5200	1386.6600
94.5300	1415.3200
94.5400	1384.6950
94.5500	1431.2675
94.5600	1704.8225
94.5700	1557.0450
94.5800	1534.0450
94.5900	1772.5350
94.6000	1863.0300
94.6100	2105.6375
94.6200	1941.5050
94.6300	1933.3325
94.6400	2187.8700
94.6500	2247.7025
94.6600	2472.5075
94.6700	2721.6225
94.6800	2907.9950
94.6900	3202.3425
94.7000	3708.4325
94.7100	3780.9000
94.7200	4195.3950
94.7300	4343.3950
94.7400	5300.0250
94.7500	5983.0550
94.7600	6712.7050
94.7700	7761.9500
94.7800	9128.4350
94.7900	10542.7600
94.8000	12511.4575
94.8100	14384.3300
94.8200	16360.6200
94.8300	18516.5500
94.8400	19515.9600
94.8500	20858.5000
94.8600	22681.2450
94.8700	22484.2750
94.8800	21632.8275
94.8900	21300.2700
94.9000	20120.1450
94.9100	17536.1150
94.9200	15451.6400
94.9300	13480.9850
94.9400	11248.3875
94.9500	9140.4750
94.9600	7543.0100
94.9700	6384.4150
94.9800	5690.1250
94.9900	5008.0750
95.0000	4544.1175
95.0100	4735.6725
95.0200	4499.8175
95.0300	4545.8525
95.0400	4284.4075
95.0500	4079.2700
95.0600	4675.4475
95.0700	4919.5075
95.0800	5448.0200
95.0900	5935.4450
95.1000	6621.1725
95.1100	7383.2075
95.1200	7900.4475
95.1300	8711.5325
95.1400	9715.6750
95.1500	10467.5825
95.1600	11091.8200
95.1700	11615.0200
95.1800	11789.7875
95.1900	11380.8075
95.2000	11396.5575
95.2100	10515.7575
95.2200	9643.6500
95.2300	8405.2950
95.2400	7541.9525
95.2500	6414.6575
95.2600	5079.3000
95.2700	3992.8875
95.2800	3607.2750
95.2900	3073.0375
95.3000	2755.1000
95.3100	2517.0150
95.3200	2175.6500
95.3300	2041.9250
95.3400	2002.4675
95.3500	1907.4375
95.3600	1792.0500
95.3700	1613.7650
95.3800	1538.3625
95.3900	1487.1225
95.4000	1483.3325
95.4100	1390.9825
95.4200	1398.7200
95.4300	1276.9575
95.4400	1235.9175
95.4500	1463.8625
95.4600	1360.4300
95.4700	1135.0000
95.4800	1208.7750
95.4900	1155.2825
95.5000	1211.3600
95.5100	1063.3200
95.5200	1126.6450
95.5300	980.1000
95.5400	997.3025
95.5500	1091.8725
95.5600	1130.6125
95.5700	888.5125
95.5800	790.1875
95.5900	859.7850
95.6000	927.8050
95.6100	933.3325
95.6200	918.0600
95.6300	809.7850
95.6400	754.2100
95.6500	841.5475
95.6600	880.5050
95.6700	913.8275
95.6800	809.9725
95.6900	937.1325
95.7000	965.2325
95.7100	829.6300
95.7200	816.6675
95.7300	847.1000
95.7400	804.3675
95.7500	678.3525
95.7600	833.8750
95.7700	834.8050
95.7800	757.3800
95.7900	628.5150
95.8000	601.4850
95.8100	691.0525
95.8200	730.3400
95.8300	718.1675
95.8400	807.6300
95.8500	816.6675
95.8600	907.5700
95.8700	765.2075
95.8800	538.0250
95.8900	637.7550
95.9000	786.1825
95.9100	724.3675
95.9200	459.5975
95.9300	539.1525
95.9400	670.8975
95.9500	683.3325
95.9600	668.2300
95.9700	636.4700
95.9800	678.6150
95.9900	668.2450
96.0000	651.5825
96.0100	725.3975
96.0200	642.8825
96.0300	708.6850
96.0400	776.9300
96.0500	708.0250
96.0600	669.8850
96.0700	756.9825
96.0800	721.5225
96.0900	656.4925
96.1000	770.3125
96.1100	708.1600
96.1200	700.0000
96.1300	790.1550
96.1400	739.9125
96.1500	718.3150
96.1600	656.6150
96.1700	650.0000
96.1800	695.0125
96.1900	685.0000
96.2000	713.3250
96.2100	641.7075
96.2200	588.3700
96.2300	763.1325
96.2400	723.4175
96.2500	656.7675
96.2600	575.1450
96.2700	671.4350
96.2800	683.3325
96.2900	803.0025
96.3000	831.6200
96.3100	653.9275
96.3200	603.4400
96.3300	629.8850
96.3400	513.8250
96.3500	649.3450
96.3600	681.5975
96.3700	638.5525
96.3800	543.7950
96.3900	607.9275
96.4000	631.5825
96.4100	558.7775
96.4200	669.2600
96.4300	668.4300
96.4400	592.1675
96.4500	568.4375
96.4600	656.0200
96.4700	755.9975
96.4800	766.6675
96.4900	707.1425
96.5000	655.3675
96.5100	650.0000
96.5200	605.3900
96.5300	614.8675
96.5400	705.8450
96.5500	701.8075
96.5600	625.7225
96.5700	438.4400
96.5800	461.2125
96.5900	540.8925
96.6000	609.3675
96.6100	676.0200
96.6200	653.6650
96.6300	501.6875
96.6400	646.4375
96.6500	829.7350
96.6600	850.0000
96.6700	657.3725
96.6800	588.8900
96.6900	598.1450
96.7000	496.3475
96.7100	438.9200
96.7200	655.3475
96.7300	638.9400
96.7400	648.1275
96.7500	576.0450
96.7600	596.2425
96.7700	747.8475
96.7800	692.7600
96.7900	535.5500
96.8000	590.5425
96.8100	585.2275
96.8200	583.3325
96.8300	568.5675
96.8400	566.6675
96.8500	581.4250
96.8600	568.5775
96.8700	699.4475
96.8800	775.6675
96.8900	694.8500
96.9000	639.1000
96.9100	603.8500
96.9200	511.5700
96.9300	441.0575
96.9400	521.7275
96.9500	621.7100
96.9600	589.1525
96.9700	598.0575
96.9800	629.4425
96.9900	677.4875
97.0000	698.0475
97.0100	597.0125
97.0200	598.0425
97.0300	614.7075
97.0400	601.9625
97.0500	600.0000
97.0600	600.0000
97.0700	585.3050
97.0800	744.9575
97.0900	663.8350
97.1000	605.9375
97.1100	644.0550
97.1200	605.9525
97.1300	541.2800
97.1400	503.9800
97.1500	485.3250
97.1600	615.3800
97.1700	662.6725
97.1800	549.3325
97.1900	606.6550
97.2000	543.3575
97.2100	504.0150
97.2200	500.0000
97.2300	441.3825
97.2400	565.2000
97.2500	671.2300
97.2600	610.0975
97.2700	570.7100
97.2800	552.0250
97.2900	520.7200
97.3000	575.2150
97.3100	510.1575
97.3200	470.7350
97.3300	569.0800
97.3400	568.7050
97.3500	581.2925
97.3600	568.7100
97.3700	581.2875
97.3800	597.9525
97.3900	556.1500
97.4000	623.0725
97.4100	721.0075
97.4200	514.1825
97.4300	527.1575
97.4400	518.7275
97.4500	502.0625
97.4600	543.8050
97.4700	550.0000
97.4800	550.0000
97.4900	520.8100
97.5000	443.7025
97.5100	447.9250
97.5200	610.4775
97.5300	618.7475
97.5400	660.4200
97.5500	622.9175
97.5600	616.6675
97.5700	631.2450
97.5800	516.7200
97.5900	500.0000
97.6000	543.7175
97.6100	593.7125
97.6200	585.4300
97.6300	568.7675
97.6400	610.3625
97.6500	500.1600
97.6600	468.7725
97.6700	597.7025
97.6800	674.8975
97.6900	552.3300
97.7000	562.4425
97.7100	610.3225
97.7200	573.0150
97.7300	450.2775
97.7400	476.9750
97.7500	556.0600
97.7600	668.4725
97.7700	639.7075
97.7800	604.2525
97.7900	498.2300
97.8000	585.0900
97.8100	614.5350
97.8200	602.1325
97.8300	585.4675
97.8400	539.7425
97.8500	635.0325
97.8600	562.8375
97.8700	506.4250
97.8800	601.6675
97.8900	645.7100
97.9000	620.9575
97.9100	631.1850
97.9200	560.7450
97.9300	506.4525
97.9400	500.0000
97.9500	456.4600
97.9600	566.0925
97.9700	438.2325
97.9800	503.7200
97.9900	632.7250
98.0000	591.9775
98.0100	510.8100
98.0200	572.5150
98.0300	452.8175
98.0400	476.8350
98.0500	570.3275
98.0600	583.3325
98.0700	554.3400
98.0800	477.5250
98.0900	466.6675
98.1000	481.1600
98.1100	483.3325
98.1200	497.8225
98.1300	471.0225
98.1400	466.6675
98.1500	524.6100
98.1600	533.3325
98.1700	533.3325
98.1800	605.7450
98.1900	616.6675
98.2000	616.6675
98.2100	573.2300
98.2200	537.7125
98.2300	533.3325
98.2400	591.2350
98.2500	657.8975
98.2600	550.8825
98.2700	605.6925
98.2800	573.2550
98.2900	479.8475
98.3000	423.2600
98.3100	445.6025
98.3200	594.6650
98.3300	761.3225
98.3400	580.8300
98.3500	434.2925
98.3600	517.9025
98.3700	576.7175
98.3800	699.0175
98.3900	716.6675
98.4000	644.3750
98.4100	691.1625
98.4200	627.7175
98.4300	529.9325
98.4400	690.1250
98.4500	499.8600
98.4600	481.1200
98.4700	598.9500
98.4800	645.5700
98.4900	462.1450
98.5000	491.1300
98.5100	630.0375
98.5200	650.0000
98.5300	765.5750
98.5400	653.3175
98.5500	604.4425
98.5600	730.0000
98.5700	576.6750
98.5800	463.3425
98.5900	594.4225
98.6000	558.9000
98.6100	622.2025
98.6200	618.8925
98.6300	674.4225
98.6400	683.3325
98.6500	596.7075
98.6600	597.7700
98.6700	600.0000
98.6800	657.7425
98.6900	652.2325
98.7000	621.1300
98.7100	688.8350
98.7200	598.9675
98.7300	568.9000
98.7400	581.0975
98.7500	568.9025
98.7600	566.6675
98.7700	667.6775
98.7800	726.6225
98.7900	733.3325
98.8000	617.9050
98.8100	643.2825
98.8200	577.8625
98.8300	595.5200
98.8400	686.5575
98.8500	425.9125
98.8600	455.4600
98.8700	423.3925
98.8800	503.2125
98.8900	516.6675
98.9000	545.5125
98.9100	650.9600
98.9200	738.7775
98.9300	634.6250
98.9400	631.0875
98.9500	662.1750
98.9600	608.9850
98.9700	614.4200
98.9800	616.6675
98.9900	645.5050
99.0000	577.9050
99.0100	566.6675
99.0200	566.6675
99.0300	638.7575
99.0400	621.1650
99.0500	558.9975
99.0600	665.3350
99.0700	654.5000
99.0800	606.7500
99.0900	542.3350
99.1000	619.8275
99.1100	633.3325
99.1200	633.3325
99.1300	503.6000
99.1400	512.1625
99.1500	559.9100
99.1600	552.2525
99.1700	564.4150
99.1800	624.3200
99.1900	546.8525
99.2000	490.0950
99.2100	440.0950
99.2200	606.2850
99.2300	575.6825
99.2400	552.2550
99.2500	550.0000
99.2600	463.5275
99.2700	435.5875
99.2800	534.2150
99.2900	650.8800
99.3000	536.9650
99.3100	559.9000
99.3200	566.6675
99.3300	696.3650
99.3400	687.8450
99.3500	596.8700
99.3600	568.9225
99.3700	638.7200
99.3800	664.4100
99.3900	594.6150
99.4000	583.3325
99.4100	540.1025
99.4200	547.7425
99.4300	550.0000
99.4400	492.3600
99.4500	670.6650
99.4600	656.7700
99.4700	650.0000
99.4800	549.1300
99.4900	533.3325
99.5000	547.7425
99.5100	550.0000
99.5200	550.0000
99.5300	550.0000
99.5400	521.1800
99.5500	531.0775
99.5600	547.7425
99.5700	564.4100
99.5800	595.4875
99.5900	585.5900
99.6000	597.7425
99.6100	571.1800
99.6200	523.4350
99.6300	487.8450
99.6400	555.3875
99.6500	537.8450
99.6600	533.3325
99.6700	547.7450
99.6800	521.1775
99.6900	459.0225
99.7000	536.4675
99.7100	521.1775
99.7200	545.4900
99.7300	506.7650
99.7400	572.0600
99.7500	612.1575
99.7600	587.8425
99.7700	554.5075
99.7800	535.5875
99.7900	461.2700
99.8000	478.8250
99.8100	440.0950
99.8200	577.4650
99.8300	585.5875
99.8400	626.5750
99.8500	503.6075
99.8600	483.3325
99.8700	641.8900
99.8800	666.6675
99.8900	724.3250
99.9000	646.8425
99.9100	590.0875
99.9200	669.8275
99.9300	568.0075
99.9400	477.9200
99.9500	481.0825
99.9600	468.9175
99.9700	466.6675
99.9800	466.6675
99.9900	466.6675
100.0000	466.6675
