*FILE_COMMENT	""
*FILE_MD5	""
*FILE_MEMO	"Nifilterin"
*FILE_OPERATOR	"Administrator"
*FILE_PACKAGE_NAME	""
*FILE_PART_ID	"GeneralMeasurement"
*FILE_SAMPLE	"CsCl"
*FILE_SYSTEM_NAME	"MiniFlex"
*FILE_TYPE	"RAS_RAW"
*FILE_USERGROUP	"Administrators"
*FILE_VERSION	"1"
*HW_ATTACHMENT_NAME_INTERNAL	"StandardSampleHolder"
*HW_COUNTER_ID-0	"CUT0025"
*HW_COUNTER_ID-2	"CMC0020"
*HW_COUNTER_MONOCHRO_ID	"CMC0020"
*HW_COUNTER_MONOCHRO_NAME	"None"
*HW_COUNTER_MONOCHRO_NAME_INTERNAL	"None"
*HW_COUNTER_NAME_INTERNAL	"DteX100"
*HW_COUNTER_NAME-0	"DteX100"
*HW_COUNTER_NAME-1	"None"
*HW_COUNTER_NAME-2	"None"
*HW_COUNTER_PIXEL_SIZE	"0.1"
*HW_COUNTER_SELECT_NAME	"DteX100"
*HW_GONIOMETER_ID	"GON0021"
*HW_GONIOMETER_NAME	"Standard"
*HW_GONIOMETER_NAME_INTERNAL	"Standard"
*HW_GONIOMETER_RADIUS-0	"90.0"
*HW_GONIOMETER_RADIUS-1	"114.0"
*HW_GONIOMETER_RADIUS-2	"91.5"
*HW_GONIOMETER_RADIUS-3	"150.0"
*HW_GONIOMETER_RADIUS-4	"103.4"
*HW_GONIOMETER_RADIUS-5	"150.0"
*HW_GONIOMETER_RADIUS-6	"46.6"
*HW_GONIOMETER_RADIUS-7	"150.0"
*HW_I_CBO_ID	"CBO0020"
*HW_I_CBO_NAME	"No_unit"
*HW_I_CBO_NAME_INTERNAL	"No_unit"
*HW_I_MONOCHRO_NAME_INTERNAL	"Manual"
*HW_I_OPT_ID-1	"CBO0020"
*HW_I_PRIMARY_NAME_INTERNAL	"No_unit"
*HW_I_SLIT_NAME_INTERNAL	"Manual"
*HW_R_ATTENUATER_AUTOMODE	"0"
*HW_R_ATTENUATER_ID	"ATN0020"
*HW_R_ATTENUATER_NAME	"No_unit"
*HW_R_ATTENUATOR_NAME_INTERNAL	"No_unit"
*HW_R_OPT_ID-1	"RCR0023"
*HW_R_OPT_ID-4	"ATN0020"
*HW_R_ROD_ID	"RCR0023"
*HW_R_ROD_NAME	"No_unit"
*HW_R_ROD_NAME_INTERNAL	"No_unit"
*HW_R_RPS_NAME_INTERNAL	"Manual"
*HW_R_RS_NAME_INTERNAL	"Manual"
*HW_R_SS_NAME_INTERNAL	"Manual"
*HW_SAMPLE_HOLDER_NAME_INTERNAL	"None"
*HW_SAMPLE_NAME	"None"
*HW_SAMPLE_NAME_INTERNAL	"None"
*HW_SAMPLE_PLATE_NAME	"None"
*HW_SAMPLE_PLATE_NAME_INTERNAL	"None"
*HW_SAMPLE_SPACER_NAME	"None"
*HW_SAMPLE_SPACER_NAME_INTERNAL	"None"
*HW_USERINFO_CATALOG_NO	""
*HW_USERINFO_INSTRUMENT_ID	""
*HW_USERINFO_INSTRUMENT_NAME	""
*HW_USERINFO_INSTRUMENT_NO	""
*HW_USERINFO_MODEL	""
*HW_USERINFO_ORDER_NO	""
*HW_USERINFO_SERIAL_NO	""
*HW_USERINFO_VERIFY_INSTRUMENT_ID	"00-07-fe-03-07-9c"
*HW_VER_RCD_COUNTER_UNIT	"N/A"
*HW_VER_RCD_CPU	"10.1.3"
*HW_VER_RCD_FPGA	"4.0.4"
*HW_VER_RCD_GONIO_UNIT	"0.0.0"
*HW_VER_RCD_INCIDENT_UNIT	"0.0.0"
*HW_VER_RCD_RECEIVING_UNIT	"0.0.0"
*HW_VER_RCD_TYPE	"RINCII"
*HW_VER_XGC_CPU	"10.1.3"
*HW_VER_XGC_CW	"5.5.6"
*HW_VER_XGC_HV	"5.5.6"
*HW_VER_XGC_RS1	"5.5.6"
*HW_VER_XGC_RS2	"N/A"
*HW_VER_XGC_RT	"N/A"
*HW_VER_XGC_TYPE	"RINCII"
*HW_XG_CURRENT_UNIT	"mA"
*HW_XG_FOCUS	"0.4mm x 12mm"
*HW_XG_FOCUS_TYPE	"LongFineToshiba"
*HW_XG_TARGET_ATOMIC_NUMBER	"29"
*HW_XG_TARGET_NAME	"Cu"
*HW_XG_TYPE	"Hermetic"
*HW_XG_VOLTAGE_UNIT	"kV"
*HW_XG_WAVE_LENGTH_ALPHA1	"1.540593"
*HW_XG_WAVE_LENGTH_ALPHA2	"1.544414"
*HW_XG_WAVE_LENGTH_BETA	"1.392246"
*HW_XG_WAVE_LENGTH_UNIT	"Angstrom"
*MEAS_COND_AXIS_NAME_INTERNAL-0	"TwoThetaTheta"
*MEAS_COND_AXIS_NAME_INTERNAL-1	"IncidentSollerSlit"
*MEAS_COND_AXIS_NAME_INTERNAL-10	"ReceivingSlitBox1"
*MEAS_COND_AXIS_NAME_INTERNAL-11	"ReceivingSlitBox1"
*MEAS_COND_AXIS_NAME_INTERNAL-12	"Filter"
*MEAS_COND_AXIS_NAME_INTERNAL-13	"ReceivingSollerSlit"
*MEAS_COND_AXIS_NAME_INTERNAL-14	"ReceivingSlitBox2"
*MEAS_COND_AXIS_NAME_INTERNAL-15	"ReceivingSlitBox2"
*MEAS_COND_AXIS_NAME_INTERNAL-16	"ReceivingSlitBox2"
*MEAS_COND_AXIS_NAME_INTERNAL-17	"PHA"
*MEAS_COND_AXIS_NAME_INTERNAL-18	"RS3"
*MEAS_COND_AXIS_NAME_INTERNAL-19	"Target_TargetTime"
*MEAS_COND_AXIS_NAME_INTERNAL-2	"IncidentSlitBox"
*MEAS_COND_AXIS_NAME_INTERNAL-20	"Target_XrayOnTime"
*MEAS_COND_AXIS_NAME_INTERNAL-21	"Target_IG"
*MEAS_COND_AXIS_NAME_INTERNAL-22	"Target_GP"
*MEAS_COND_AXIS_NAME_INTERNAL-23	"Target_FC"
*MEAS_COND_AXIS_NAME_INTERNAL-24	"HVPS_Bias"
*MEAS_COND_AXIS_NAME_INTERNAL-25	"HVPS_HVPSTime"
*MEAS_COND_AXIS_NAME_INTERNAL-26	"HVPS_Type1Time"
*MEAS_COND_AXIS_NAME_INTERNAL-27	"HVPS_Type2Time"
*MEAS_COND_AXIS_NAME_INTERNAL-28	"HVPS_Type3Time"
*MEAS_COND_AXIS_NAME_INTERNAL-29	"CW_IERTime"
*MEAS_COND_AXIS_NAME_INTERNAL-3	"IncidentSlitBox"
*MEAS_COND_AXIS_NAME_INTERNAL-30	"CW_WaterHose"
*MEAS_COND_AXIS_NAME_INTERNAL-31	"CW_CoolingWater"
*MEAS_COND_AXIS_NAME_INTERNAL-32	"CW_ECTime"
*MEAS_COND_AXIS_NAME_INTERNAL-33	"CW_Flow1"
*MEAS_COND_AXIS_NAME_INTERNAL-34	"CW_Temperature1"
*MEAS_COND_AXIS_NAME_INTERNAL-35	"CW_Pressure1"
*MEAS_COND_AXIS_NAME_INTERNAL-36	"CW_PressureIn"
*MEAS_COND_AXIS_NAME_INTERNAL-37	"CW_PressureOut"
*MEAS_COND_AXIS_NAME_INTERNAL-38	"CW_Flow2"
*MEAS_COND_AXIS_NAME_INTERNAL-39	"CW_Temperature2"
*MEAS_COND_AXIS_NAME_INTERNAL-4	"IncidentSlitBox"
*MEAS_COND_AXIS_NAME_INTERNAL-40	"CW_Pressure2"
*MEAS_COND_AXIS_NAME_INTERNAL-41	"RE_EnclosureTemp"
*MEAS_COND_AXIS_NAME_INTERNAL-42	"RE_EnclosureHummidity"
*MEAS_COND_AXIS_NAME_INTERNAL-43	"RE_CabinetTemp"
*MEAS_COND_AXIS_NAME_INTERNAL-44	"RE_RPTemp"
*MEAS_COND_AXIS_NAME_INTERNAL-45	"RE_ShutterAXrayOnTime"
*MEAS_COND_AXIS_NAME_INTERNAL-46	"RE_ShutterATimes"
*MEAS_COND_AXIS_NAME_INTERNAL-47	"RE_ShutterAOpenCloseTime"
*MEAS_COND_AXIS_NAME_INTERNAL-48	"RE_ShutterACloseOpenTime"
*MEAS_COND_AXIS_NAME_INTERNAL-49	"RE_ShutterBXrayOnTime"
*MEAS_COND_AXIS_NAME_INTERNAL-5	"IncidentAxdSlit"
*MEAS_COND_AXIS_NAME_INTERNAL-50	"RE_ShutterBTimes"
*MEAS_COND_AXIS_NAME_INTERNAL-51	"RE_ShutterBOpenCloseTime"
*MEAS_COND_AXIS_NAME_INTERNAL-52	"RE_ShutterBCloseOpenTime"
*MEAS_COND_AXIS_NAME_INTERNAL-53	"RE_XrayWarningRamp"
*MEAS_COND_AXIS_NAME_INTERNAL-54	"RE_ShutterAInstallation"
*MEAS_COND_AXIS_NAME_INTERNAL-55	"RE_ShutterARamp"
*MEAS_COND_AXIS_NAME_INTERNAL-56	"RE_ShutterBInstallation"
*MEAS_COND_AXIS_NAME_INTERNAL-57	"RE_ShutterBRamp"
*MEAS_COND_AXIS_NAME_INTERNAL-58	"RE_ExtShutterCLS"
*MEAS_COND_AXIS_NAME_INTERNAL-59	"RE_ExtXrayOFF"
*MEAS_COND_AXIS_NAME_INTERNAL-6	"IncidentAxdSlit"
*MEAS_COND_AXIS_NAME_INTERNAL-60	"RE_ExtSafetyCircuit"
*MEAS_COND_AXIS_NAME_INTERNAL-61	"Version_CPU"
*MEAS_COND_AXIS_NAME_INTERNAL-62	"Version_RS1"
*MEAS_COND_AXIS_NAME_INTERNAL-63	"Version_RS2"
*MEAS_COND_AXIS_NAME_INTERNAL-64	"Version_HV"
*MEAS_COND_AXIS_NAME_INTERNAL-65	"Version_CW"
*MEAS_COND_AXIS_NAME_INTERNAL-66	"Version_RT"
*MEAS_COND_AXIS_NAME_INTERNAL-67	"IncidentPrimary"
*MEAS_COND_AXIS_NAME_INTERNAL-68	"IncidentMonochromator"
*MEAS_COND_AXIS_NAME_INTERNAL-69	"ReceivingOptics"
*MEAS_COND_AXIS_NAME_INTERNAL-7	"IncidentAxdSlit"
*MEAS_COND_AXIS_NAME_INTERNAL-70	"CounterMonochromatorKind"
*MEAS_COND_AXIS_NAME_INTERNAL-8	"Filter"
*MEAS_COND_AXIS_NAME_INTERNAL-9	"ReceivingSlitBox1"
*MEAS_COND_AXIS_NAME-0	"TwoThetaTheta"
*MEAS_COND_AXIS_NAME-1	"IncidentSollerSlit"
*MEAS_COND_AXIS_NAME-10	"ReceivingSlitBox1-_Axis"
*MEAS_COND_AXIS_NAME-11	"SlitSS"
*MEAS_COND_AXIS_NAME-12	"Filter"
*MEAS_COND_AXIS_NAME-13	"ReceivingSollerSlit"
*MEAS_COND_AXIS_NAME-14	"ReceivingSlitBox2"
*MEAS_COND_AXIS_NAME-15	"ReceivingSlitBox2-_Axis"
*MEAS_COND_AXIS_NAME-16	"SlitRS"
*MEAS_COND_AXIS_NAME-17	"PHA"
*MEAS_COND_AXIS_NAME-18	"RS3"
*MEAS_COND_AXIS_NAME-19	"Target_TargetTime"
*MEAS_COND_AXIS_NAME-2	"IncidentSlitBox"
*MEAS_COND_AXIS_NAME-20	"Target_XrayOnTime"
*MEAS_COND_AXIS_NAME-21	"Target_IG"
*MEAS_COND_AXIS_NAME-22	"Target_GP"
*MEAS_COND_AXIS_NAME-23	"Target_FC"
*MEAS_COND_AXIS_NAME-24	"HVPS_Bias"
*MEAS_COND_AXIS_NAME-25	"HVPS_HVPSTime"
*MEAS_COND_AXIS_NAME-26	"HVPS_Type1Time"
*MEAS_COND_AXIS_NAME-27	"HVPS_Type2Time"
*MEAS_COND_AXIS_NAME-28	"HVPS_Type3Time"
*MEAS_COND_AXIS_NAME-29	"CW_IERTime"
*MEAS_COND_AXIS_NAME-3	"IncidentSlitBox-_Axis"
*MEAS_COND_AXIS_NAME-30	"CW_WaterHose"
*MEAS_COND_AXIS_NAME-31	"CW_CoolingWater"
*MEAS_COND_AXIS_NAME-32	"CW_ECTime"
*MEAS_COND_AXIS_NAME-33	"CW_Flow1"
*MEAS_COND_AXIS_NAME-34	"CW_Temperature1"
*MEAS_COND_AXIS_NAME-35	"CW_Pressure1"
*MEAS_COND_AXIS_NAME-36	"CW_PressureIn"
*MEAS_COND_AXIS_NAME-37	"CW_PressureOut"
*MEAS_COND_AXIS_NAME-38	"CW_Flow2"
*MEAS_COND_AXIS_NAME-39	"CW_Temperature2"
*MEAS_COND_AXIS_NAME-4	"SlitDS"
*MEAS_COND_AXIS_NAME-40	"CW_Pressure2"
*MEAS_COND_AXIS_NAME-41	"RE_EnclosureTemp"
*MEAS_COND_AXIS_NAME-42	"RE_EnclosureHummidity"
*MEAS_COND_AXIS_NAME-43	"RE_CabinetTemp"
*MEAS_COND_AXIS_NAME-44	"RE_RPTemp"
*MEAS_COND_AXIS_NAME-45	"RE_ShutterAXrayOnTime"
*MEAS_COND_AXIS_NAME-46	"RE_ShutterATimes"
*MEAS_COND_AXIS_NAME-47	"RE_ShutterAOpenCloseTime"
*MEAS_COND_AXIS_NAME-48	"RE_ShutterACloseOpenTime"
*MEAS_COND_AXIS_NAME-49	"RE_ShutterBXrayOnTime"
*MEAS_COND_AXIS_NAME-5	"IncidentAxdSlit"
*MEAS_COND_AXIS_NAME-50	"RE_ShutterBTimes"
*MEAS_COND_AXIS_NAME-51	"RE_ShutterBOpenCloseTime"
*MEAS_COND_AXIS_NAME-52	"RE_ShutterBCloseOpenTime"
*MEAS_COND_AXIS_NAME-53	"RE_XrayWarningRamp"
*MEAS_COND_AXIS_NAME-54	"RE_ShutterAInstallation"
*MEAS_COND_AXIS_NAME-55	"RE_ShutterARamp"
*MEAS_COND_AXIS_NAME-56	"RE_ShutterBInstallation"
*MEAS_COND_AXIS_NAME-57	"RE_ShutterBRamp"
*MEAS_COND_AXIS_NAME-58	"RE_ExtShutterCLS"
*MEAS_COND_AXIS_NAME-59	"RE_ExtXrayOFF"
*MEAS_COND_AXIS_NAME-6	"LLS"
*MEAS_COND_AXIS_NAME-60	"RE_ExtSafetyCircuit"
*MEAS_COND_AXIS_NAME-61	"Version_CPU"
*MEAS_COND_AXIS_NAME-62	"Version_RS1"
*MEAS_COND_AXIS_NAME-63	"Version_RS2"
*MEAS_COND_AXIS_NAME-64	"Version_HV"
*MEAS_COND_AXIS_NAME-65	"Version_CW"
*MEAS_COND_AXIS_NAME-66	"Version_RT"
*MEAS_COND_AXIS_NAME-67	"IncidentPrimary"
*MEAS_COND_AXIS_NAME-68	"IncidentMonochromator"
*MEAS_COND_AXIS_NAME-69	"ReceivingOptics"
*MEAS_COND_AXIS_NAME-7	"DHLSlit"
*MEAS_COND_AXIS_NAME-70	"CounterMonochromatorKind"
*MEAS_COND_AXIS_NAME-8	"Filter"
*MEAS_COND_AXIS_NAME-9	"ReceivingSlitBox1"
*MEAS_COND_AXIS_OFFSET-0	"0"
*MEAS_COND_AXIS_OFFSET-1	"0"
*MEAS_COND_AXIS_OFFSET-10	"0"
*MEAS_COND_AXIS_OFFSET-11	"0"
*MEAS_COND_AXIS_OFFSET-12	"0"
*MEAS_COND_AXIS_OFFSET-13	"0"
*MEAS_COND_AXIS_OFFSET-14	"0"
*MEAS_COND_AXIS_OFFSET-15	"0"
*MEAS_COND_AXIS_OFFSET-16	"0"
*MEAS_COND_AXIS_OFFSET-17	"0"
*MEAS_COND_AXIS_OFFSET-18	"0"
*MEAS_COND_AXIS_OFFSET-19	"0"
*MEAS_COND_AXIS_OFFSET-2	"0"
*MEAS_COND_AXIS_OFFSET-20	"0"
*MEAS_COND_AXIS_OFFSET-21	"0"
*MEAS_COND_AXIS_OFFSET-22	"0"
*MEAS_COND_AXIS_OFFSET-23	"0"
*MEAS_COND_AXIS_OFFSET-24	"0"
*MEAS_COND_AXIS_OFFSET-25	"0"
*MEAS_COND_AXIS_OFFSET-26	"0"
*MEAS_COND_AXIS_OFFSET-27	"0"
*MEAS_COND_AXIS_OFFSET-28	"0"
*MEAS_COND_AXIS_OFFSET-29	"0"
*MEAS_COND_AXIS_OFFSET-3	"0"
*MEAS_COND_AXIS_OFFSET-30	"0"
*MEAS_COND_AXIS_OFFSET-31	"0"
*MEAS_COND_AXIS_OFFSET-32	"0"
*MEAS_COND_AXIS_OFFSET-33	"0"
*MEAS_COND_AXIS_OFFSET-34	"0"
*MEAS_COND_AXIS_OFFSET-35	"0"
*MEAS_COND_AXIS_OFFSET-36	"0"
*MEAS_COND_AXIS_OFFSET-37	"0"
*MEAS_COND_AXIS_OFFSET-38	"0"
*MEAS_COND_AXIS_OFFSET-39	"0"
*MEAS_COND_AXIS_OFFSET-4	"0"
*MEAS_COND_AXIS_OFFSET-40	"0"
*MEAS_COND_AXIS_OFFSET-41	"0"
*MEAS_COND_AXIS_OFFSET-42	"0"
*MEAS_COND_AXIS_OFFSET-43	"0"
*MEAS_COND_AXIS_OFFSET-44	"0"
*MEAS_COND_AXIS_OFFSET-45	"0"
*MEAS_COND_AXIS_OFFSET-46	"0"
*MEAS_COND_AXIS_OFFSET-47	"0"
*MEAS_COND_AXIS_OFFSET-48	"0"
*MEAS_COND_AXIS_OFFSET-49	"0"
*MEAS_COND_AXIS_OFFSET-5	"0"
*MEAS_COND_AXIS_OFFSET-50	"0"
*MEAS_COND_AXIS_OFFSET-51	"0"
*MEAS_COND_AXIS_OFFSET-52	"0"
*MEAS_COND_AXIS_OFFSET-53	"0"
*MEAS_COND_AXIS_OFFSET-54	"0"
*MEAS_COND_AXIS_OFFSET-55	"0"
*MEAS_COND_AXIS_OFFSET-56	"0"
*MEAS_COND_AXIS_OFFSET-57	"0"
*MEAS_COND_AXIS_OFFSET-58	"0"
*MEAS_COND_AXIS_OFFSET-59	"0"
*MEAS_COND_AXIS_OFFSET-6	"0"
*MEAS_COND_AXIS_OFFSET-60	"0"
*MEAS_COND_AXIS_OFFSET-61	"0"
*MEAS_COND_AXIS_OFFSET-62	"0"
*MEAS_COND_AXIS_OFFSET-63	"0"
*MEAS_COND_AXIS_OFFSET-64	"0"
*MEAS_COND_AXIS_OFFSET-65	"0"
*MEAS_COND_AXIS_OFFSET-66	"0"
*MEAS_COND_AXIS_OFFSET-67	"0"
*MEAS_COND_AXIS_OFFSET-68	"0"
*MEAS_COND_AXIS_OFFSET-69	"0"
*MEAS_COND_AXIS_OFFSET-7	"0"
*MEAS_COND_AXIS_OFFSET-70	"0"
*MEAS_COND_AXIS_OFFSET-8	"0"
*MEAS_COND_AXIS_OFFSET-9	"0"
*MEAS_COND_AXIS_POSITION-0	"12.0000"
*MEAS_COND_AXIS_POSITION-1	"Soller_slit_2.5deg"
*MEAS_COND_AXIS_POSITION-10	"8.0mm"
*MEAS_COND_AXIS_POSITION-11	"8.0mm"
*MEAS_COND_AXIS_POSITION-12	"K_beta_x1.5"
*MEAS_COND_AXIS_POSITION-13	"Soller_slit_2.5deg"
*MEAS_COND_AXIS_POSITION-14	"Open"
*MEAS_COND_AXIS_POSITION-15	"Open"
*MEAS_COND_AXIS_POSITION-16	"Open"
*MEAS_COND_AXIS_POSITION-17	"36"
*MEAS_COND_AXIS_POSITION-18	"Open"
*MEAS_COND_AXIS_POSITION-19	""
*MEAS_COND_AXIS_POSITION-2	"1.25deg"
*MEAS_COND_AXIS_POSITION-20	"24.733333"
*MEAS_COND_AXIS_POSITION-21	"0.000000"
*MEAS_COND_AXIS_POSITION-22	""
*MEAS_COND_AXIS_POSITION-23	"0.000000"
*MEAS_COND_AXIS_POSITION-24	"0.000000"
*MEAS_COND_AXIS_POSITION-25	""
*MEAS_COND_AXIS_POSITION-26	""
*MEAS_COND_AXIS_POSITION-27	""
*MEAS_COND_AXIS_POSITION-28	""
*MEAS_COND_AXIS_POSITION-29	"0.000000"
*MEAS_COND_AXIS_POSITION-3	"1.25deg"
*MEAS_COND_AXIS_POSITION-30	""
*MEAS_COND_AXIS_POSITION-31	""
*MEAS_COND_AXIS_POSITION-32	""
*MEAS_COND_AXIS_POSITION-33	"4.280000"
*MEAS_COND_AXIS_POSITION-34	"0.000000"
*MEAS_COND_AXIS_POSITION-35	"0.000000"
*MEAS_COND_AXIS_POSITION-36	""
*MEAS_COND_AXIS_POSITION-37	""
*MEAS_COND_AXIS_POSITION-38	"0.000000"
*MEAS_COND_AXIS_POSITION-39	"0.000000"
*MEAS_COND_AXIS_POSITION-4	"1.25deg"
*MEAS_COND_AXIS_POSITION-40	"0.000000"
*MEAS_COND_AXIS_POSITION-41	"0.000000"
*MEAS_COND_AXIS_POSITION-42	""
*MEAS_COND_AXIS_POSITION-43	"37.000000"
*MEAS_COND_AXIS_POSITION-44	""
*MEAS_COND_AXIS_POSITION-45	""
*MEAS_COND_AXIS_POSITION-46	""
*MEAS_COND_AXIS_POSITION-47	""
*MEAS_COND_AXIS_POSITION-48	""
*MEAS_COND_AXIS_POSITION-49	""
*MEAS_COND_AXIS_POSITION-5	"10mm"
*MEAS_COND_AXIS_POSITION-50	"95.000000"
*MEAS_COND_AXIS_POSITION-51	"32.000000"
*MEAS_COND_AXIS_POSITION-52	"23.000000"
*MEAS_COND_AXIS_POSITION-53	""
*MEAS_COND_AXIS_POSITION-54	"OFF"
*MEAS_COND_AXIS_POSITION-55	""
*MEAS_COND_AXIS_POSITION-56	"ON"
*MEAS_COND_AXIS_POSITION-57	""
*MEAS_COND_AXIS_POSITION-58	""
*MEAS_COND_AXIS_POSITION-59	""
*MEAS_COND_AXIS_POSITION-6	"10mm"
*MEAS_COND_AXIS_POSITION-60	"OPEN"
*MEAS_COND_AXIS_POSITION-61	"10.1.3"
*MEAS_COND_AXIS_POSITION-62	"5.5.6"
*MEAS_COND_AXIS_POSITION-63	"N/A"
*MEAS_COND_AXIS_POSITION-64	"5.5.6"
*MEAS_COND_AXIS_POSITION-65	"5.5.6"
*MEAS_COND_AXIS_POSITION-66	"N/A"
*MEAS_COND_AXIS_POSITION-67	"No_unit"
*MEAS_COND_AXIS_POSITION-68	"Manual"
*MEAS_COND_AXIS_POSITION-69	"No_unit"
*MEAS_COND_AXIS_POSITION-7	"10mm"
*MEAS_COND_AXIS_POSITION-70	"None"
*MEAS_COND_AXIS_POSITION-8	"None"
*MEAS_COND_AXIS_POSITION-9	"8.0mm"
*MEAS_COND_AXIS_RESOLUTION-0	"0.0025"
*MEAS_COND_AXIS_RESOLUTION-1	""
*MEAS_COND_AXIS_RESOLUTION-10	""
*MEAS_COND_AXIS_RESOLUTION-11	""
*MEAS_COND_AXIS_RESOLUTION-12	""
*MEAS_COND_AXIS_RESOLUTION-13	""
*MEAS_COND_AXIS_RESOLUTION-14	""
*MEAS_COND_AXIS_RESOLUTION-15	""
*MEAS_COND_AXIS_RESOLUTION-16	""
*MEAS_COND_AXIS_RESOLUTION-17	"1"
*MEAS_COND_AXIS_RESOLUTION-18	"0.1"
*MEAS_COND_AXIS_RESOLUTION-19	"0.01"
*MEAS_COND_AXIS_RESOLUTION-2	""
*MEAS_COND_AXIS_RESOLUTION-20	"0.010000"
*MEAS_COND_AXIS_RESOLUTION-21	"1"
*MEAS_COND_AXIS_RESOLUTION-22	"1"
*MEAS_COND_AXIS_RESOLUTION-23	"0.01"
*MEAS_COND_AXIS_RESOLUTION-24	"1"
*MEAS_COND_AXIS_RESOLUTION-25	"0.01"
*MEAS_COND_AXIS_RESOLUTION-26	"0.01"
*MEAS_COND_AXIS_RESOLUTION-27	"0.01"
*MEAS_COND_AXIS_RESOLUTION-28	"0.01"
*MEAS_COND_AXIS_RESOLUTION-29	"0.010000"
*MEAS_COND_AXIS_RESOLUTION-3	""
*MEAS_COND_AXIS_RESOLUTION-30	"0.01"
*MEAS_COND_AXIS_RESOLUTION-31	"0.01"
*MEAS_COND_AXIS_RESOLUTION-32	"1"
*MEAS_COND_AXIS_RESOLUTION-33	"0.100000"
*MEAS_COND_AXIS_RESOLUTION-34	"1.000000"
*MEAS_COND_AXIS_RESOLUTION-35	"0.010000"
*MEAS_COND_AXIS_RESOLUTION-36	"0.01"
*MEAS_COND_AXIS_RESOLUTION-37	"0.01"
*MEAS_COND_AXIS_RESOLUTION-38	"0.1"
*MEAS_COND_AXIS_RESOLUTION-39	"1"
*MEAS_COND_AXIS_RESOLUTION-4	""
*MEAS_COND_AXIS_RESOLUTION-40	"0.01"
*MEAS_COND_AXIS_RESOLUTION-41	"1.000000"
*MEAS_COND_AXIS_RESOLUTION-42	"1"
*MEAS_COND_AXIS_RESOLUTION-43	"1.000000"
*MEAS_COND_AXIS_RESOLUTION-44	"1"
*MEAS_COND_AXIS_RESOLUTION-45	"0.01"
*MEAS_COND_AXIS_RESOLUTION-46	"1"
*MEAS_COND_AXIS_RESOLUTION-47	"1"
*MEAS_COND_AXIS_RESOLUTION-48	"1"
*MEAS_COND_AXIS_RESOLUTION-49	"0.01"
*MEAS_COND_AXIS_RESOLUTION-5	""
*MEAS_COND_AXIS_RESOLUTION-50	"1.000000"
*MEAS_COND_AXIS_RESOLUTION-51	"1.000000"
*MEAS_COND_AXIS_RESOLUTION-52	"1.000000"
*MEAS_COND_AXIS_RESOLUTION-53	"-"
*MEAS_COND_AXIS_RESOLUTION-54	"-"
*MEAS_COND_AXIS_RESOLUTION-55	"-"
*MEAS_COND_AXIS_RESOLUTION-56	"1.000000"
*MEAS_COND_AXIS_RESOLUTION-57	"-"
*MEAS_COND_AXIS_RESOLUTION-58	"-"
*MEAS_COND_AXIS_RESOLUTION-59	"-"
*MEAS_COND_AXIS_RESOLUTION-6	""
*MEAS_COND_AXIS_RESOLUTION-60	"1.000000"
*MEAS_COND_AXIS_RESOLUTION-61	"1.000000"
*MEAS_COND_AXIS_RESOLUTION-62	"1.000000"
*MEAS_COND_AXIS_RESOLUTION-63	"1.000000"
*MEAS_COND_AXIS_RESOLUTION-64	"1.000000"
*MEAS_COND_AXIS_RESOLUTION-65	"1.000000"
*MEAS_COND_AXIS_RESOLUTION-66	"1.000000"
*MEAS_COND_AXIS_RESOLUTION-7	""
*MEAS_COND_AXIS_RESOLUTION-8	""
*MEAS_COND_AXIS_RESOLUTION-9	""
*MEAS_COND_AXIS_STATE-0	"Scan"
*MEAS_COND_AXIS_STATE-1	"Fixed"
*MEAS_COND_AXIS_STATE-10	"Fixed"
*MEAS_COND_AXIS_STATE-11	"Fixed"
*MEAS_COND_AXIS_STATE-12	"Fixed"
*MEAS_COND_AXIS_STATE-13	"Fixed"
*MEAS_COND_AXIS_STATE-14	"Fixed"
*MEAS_COND_AXIS_STATE-15	"Fixed"
*MEAS_COND_AXIS_STATE-16	"Fixed"
*MEAS_COND_AXIS_STATE-17	"Fixed"
*MEAS_COND_AXIS_STATE-18	"Fixed"
*MEAS_COND_AXIS_STATE-19	"Fixed"
*MEAS_COND_AXIS_STATE-2	"Fixed"
*MEAS_COND_AXIS_STATE-20	"Fixed"
*MEAS_COND_AXIS_STATE-21	"Fixed"
*MEAS_COND_AXIS_STATE-22	"Fixed"
*MEAS_COND_AXIS_STATE-23	"Fixed"
*MEAS_COND_AXIS_STATE-24	"Fixed"
*MEAS_COND_AXIS_STATE-25	"Fixed"
*MEAS_COND_AXIS_STATE-26	"Fixed"
*MEAS_COND_AXIS_STATE-27	"Fixed"
*MEAS_COND_AXIS_STATE-28	"Fixed"
*MEAS_COND_AXIS_STATE-29	"Fixed"
*MEAS_COND_AXIS_STATE-3	"Fixed"
*MEAS_COND_AXIS_STATE-30	"Fixed"
*MEAS_COND_AXIS_STATE-31	"Fixed"
*MEAS_COND_AXIS_STATE-32	"Fixed"
*MEAS_COND_AXIS_STATE-33	"Fixed"
*MEAS_COND_AXIS_STATE-34	"Fixed"
*MEAS_COND_AXIS_STATE-35	"Fixed"
*MEAS_COND_AXIS_STATE-36	"Fixed"
*MEAS_COND_AXIS_STATE-37	"Fixed"
*MEAS_COND_AXIS_STATE-38	"Fixed"
*MEAS_COND_AXIS_STATE-39	"Fixed"
*MEAS_COND_AXIS_STATE-4	"Fixed"
*MEAS_COND_AXIS_STATE-40	"Fixed"
*MEAS_COND_AXIS_STATE-41	"Fixed"
*MEAS_COND_AXIS_STATE-42	"Fixed"
*MEAS_COND_AXIS_STATE-43	"Fixed"
*MEAS_COND_AXIS_STATE-44	"Fixed"
*MEAS_COND_AXIS_STATE-45	"Fixed"
*MEAS_COND_AXIS_STATE-46	"Fixed"
*MEAS_COND_AXIS_STATE-47	"Fixed"
*MEAS_COND_AXIS_STATE-48	"Fixed"
*MEAS_COND_AXIS_STATE-49	"Fixed"
*MEAS_COND_AXIS_STATE-5	"Fixed"
*MEAS_COND_AXIS_STATE-50	"Fixed"
*MEAS_COND_AXIS_STATE-51	"Fixed"
*MEAS_COND_AXIS_STATE-52	"Fixed"
*MEAS_COND_AXIS_STATE-53	"Fixed"
*MEAS_COND_AXIS_STATE-54	"Fixed"
*MEAS_COND_AXIS_STATE-55	"Fixed"
*MEAS_COND_AXIS_STATE-56	"Fixed"
*MEAS_COND_AXIS_STATE-57	"Fixed"
*MEAS_COND_AXIS_STATE-58	"Fixed"
*MEAS_COND_AXIS_STATE-59	"Fixed"
*MEAS_COND_AXIS_STATE-6	"Fixed"
*MEAS_COND_AXIS_STATE-60	"Fixed"
*MEAS_COND_AXIS_STATE-61	"Fixed"
*MEAS_COND_AXIS_STATE-62	"Fixed"
*MEAS_COND_AXIS_STATE-63	"Fixed"
*MEAS_COND_AXIS_STATE-64	"Fixed"
*MEAS_COND_AXIS_STATE-65	"Fixed"
*MEAS_COND_AXIS_STATE-66	"Fixed"
*MEAS_COND_AXIS_STATE-7	"Fixed"
*MEAS_COND_AXIS_STATE-8	"Fixed"
*MEAS_COND_AXIS_STATE-9	"Fixed"
*MEAS_COND_AXIS_UNIT-0	"deg"
*MEAS_COND_AXIS_UNIT-1	""
*MEAS_COND_AXIS_UNIT-10	""
*MEAS_COND_AXIS_UNIT-11	""
*MEAS_COND_AXIS_UNIT-12	""
*MEAS_COND_AXIS_UNIT-13	""
*MEAS_COND_AXIS_UNIT-14	""
*MEAS_COND_AXIS_UNIT-15	""
*MEAS_COND_AXIS_UNIT-16	""
*MEAS_COND_AXIS_UNIT-17	"div"
*MEAS_COND_AXIS_UNIT-18	""
*MEAS_COND_AXIS_UNIT-19	"H"
*MEAS_COND_AXIS_UNIT-2	""
*MEAS_COND_AXIS_UNIT-20	"H"
*MEAS_COND_AXIS_UNIT-21	"mV"
*MEAS_COND_AXIS_UNIT-22	"V"
*MEAS_COND_AXIS_UNIT-23	"V"
*MEAS_COND_AXIS_UNIT-24	"V"
*MEAS_COND_AXIS_UNIT-25	"H"
*MEAS_COND_AXIS_UNIT-26	"H"
*MEAS_COND_AXIS_UNIT-27	"H"
*MEAS_COND_AXIS_UNIT-28	"H"
*MEAS_COND_AXIS_UNIT-29	"H"
*MEAS_COND_AXIS_UNIT-3	""
*MEAS_COND_AXIS_UNIT-30	"H"
*MEAS_COND_AXIS_UNIT-31	"H"
*MEAS_COND_AXIS_UNIT-32	"uS/m"
*MEAS_COND_AXIS_UNIT-33	"L/min"
*MEAS_COND_AXIS_UNIT-34	"degree"
*MEAS_COND_AXIS_UNIT-35	"MPa"
*MEAS_COND_AXIS_UNIT-36	"MPa"
*MEAS_COND_AXIS_UNIT-37	"MPa"
*MEAS_COND_AXIS_UNIT-38	"L/min"
*MEAS_COND_AXIS_UNIT-39	"C"
*MEAS_COND_AXIS_UNIT-4	""
*MEAS_COND_AXIS_UNIT-40	"MPa"
*MEAS_COND_AXIS_UNIT-41	"degree"
*MEAS_COND_AXIS_UNIT-42	"percent"
*MEAS_COND_AXIS_UNIT-43	"degree"
*MEAS_COND_AXIS_UNIT-44	"C"
*MEAS_COND_AXIS_UNIT-45	"H"
*MEAS_COND_AXIS_UNIT-46	"time"
*MEAS_COND_AXIS_UNIT-47	"msec"
*MEAS_COND_AXIS_UNIT-48	"msec"
*MEAS_COND_AXIS_UNIT-49	"H"
*MEAS_COND_AXIS_UNIT-5	""
*MEAS_COND_AXIS_UNIT-50	"times"
*MEAS_COND_AXIS_UNIT-51	"msec"
*MEAS_COND_AXIS_UNIT-52	"msec"
*MEAS_COND_AXIS_UNIT-53	"-"
*MEAS_COND_AXIS_UNIT-54	"-"
*MEAS_COND_AXIS_UNIT-55	"-"
*MEAS_COND_AXIS_UNIT-56	""
*MEAS_COND_AXIS_UNIT-57	"-"
*MEAS_COND_AXIS_UNIT-58	"-"
*MEAS_COND_AXIS_UNIT-59	"-"
*MEAS_COND_AXIS_UNIT-6	""
*MEAS_COND_AXIS_UNIT-60	""
*MEAS_COND_AXIS_UNIT-61	""
*MEAS_COND_AXIS_UNIT-62	""
*MEAS_COND_AXIS_UNIT-63	""
*MEAS_COND_AXIS_UNIT-64	""
*MEAS_COND_AXIS_UNIT-65	""
*MEAS_COND_AXIS_UNIT-66	""
*MEAS_COND_AXIS_UNIT-67	""
*MEAS_COND_AXIS_UNIT-68	""
*MEAS_COND_AXIS_UNIT-69	""
*MEAS_COND_AXIS_UNIT-7	""
*MEAS_COND_AXIS_UNIT-70	""
*MEAS_COND_AXIS_UNIT-8	""
*MEAS_COND_AXIS_UNIT-9	""
*MEAS_COND_COUNTER_ADJUSTMENTMETHOD	""
*MEAS_COND_COUNTER_CENTER_X	"0.5"
*MEAS_COND_COUNTER_CENTER_Y	"63.92"
*MEAS_COND_COUNTER_COUNTMODE	"Differential"
*MEAS_COND_COUNTER_DEADTIMECORRECTION	"Enabled"
*MEAS_COND_COUNTER_DISTANCE	"150"
*MEAS_COND_COUNTER_ENERGYMODE	"Standard"
*MEAS_COND_COUNTER_PHA_UNIT	"div"
*MEAS_COND_COUNTER_PHABASE	"36"
*MEAS_COND_COUNTER_PHAWINDOW	"26"
*MEAS_COND_COUNTER_PITCH_X	"20"
*MEAS_COND_COUNTER_PITCH_Y	"0.1"
*MEAS_COND_COUNTER_PITCHUNIT	"mm"
*MEAS_COND_COUNTER_VALIDWIDTH_X	"1"
*MEAS_COND_COUNTER_VALIDWIDTH_Y	"200"
*MEAS_COND_XG_CURRENT	"15"
*MEAS_COND_XG_VOLTAGE	"40"
*MEAS_COND_XG_WAVE_TYPE	"Ka"
*MEAS_DATA_COUNT	"9001"
*MEAS_SCAN_AXIS_X	"TwoThetaTheta"
*MEAS_SCAN_AXIS_X_INTERNAL	"TwoThetaTheta"
*MEAS_SCAN_END_TIME "04/26/2024 14:45:17"
*MEAS_SCAN_MODE	"CONTINUOUS"
*MEAS_SCAN_MODE_INTERNAL	"TDI_1D"
*MEAS_SCAN_RESOLUTION_X	"0.0025"
*MEAS_SCAN_SPEED	"10.0000"
*MEAS_SCAN_SPEED_UNIT	"deg/min"
*MEAS_SCAN_START	"10.0000"
*MEAS_SCAN_START_TIME "04/26/2024 14:35:37"
*MEAS_SCAN_STEP	"0.0100"
*MEAS_SCAN_STOP	"100.0000"
*MEAS_SCAN_UNEQUALY_SPACED	"False"
*MEAS_SCAN_UNIT_X	"deg"
*MEAS_SCAN_UNIT_Y	"cps"
#Intensity_unit=cps
#Attenuator_coefficient=1.0000
10.0000	1898.3275
10.0100	1894.9925
10.0200	1985.0650
10.0300	1856.6125
10.0400	1910.0800
10.0500	1861.4800
10.0600	1965.0325
10.0700	1989.0525
10.0800	2340.2750
10.0900	2208.0275
10.1000	1821.4900
10.1100	1850.6525
10.1200	1693.6200
10.1300	1666.6900
10.1400	1989.6625
10.1500	2048.4250
10.1600	2039.6100
10.1700	2079.6875
10.1800	1905.1200
10.1900	2107.3700
10.2000	2008.9500
10.2100	1944.0900
10.2200	2028.5775
10.2300	1816.6675
10.2400	1834.8725
10.2500	2018.1775
10.2600	2016.7875
10.2700	1850.0000
10.2800	1861.9300
10.2900	1992.2400
10.3000	2071.5100
10.3100	1960.3000
10.3200	2046.1575
10.3300	1834.7925
10.3400	1836.9325
10.3500	1689.8825
10.3600	1606.3550
10.3700	1864.3225
10.3800	2002.4100
10.3900	1827.2925
10.4000	1610.1725
10.4100	1898.5950
10.4200	1893.1300
10.4300	1981.8925
10.4400	1811.0600
10.4500	2113.9075
10.4600	2057.2425
10.4700	1777.6000
10.4800	1932.6400
10.4900	2271.5800
10.5000	1948.6525
10.5100	1941.3750
10.5200	2025.3325
10.5300	1921.3900
10.5400	1793.8950
10.5500	1936.3725
10.5600	2165.3600
10.5700	2131.7925
10.5800	1914.0800
10.5900	1888.4825
10.6000	1948.7200
10.6100	1953.7150
10.6200	2167.0500
10.6300	1755.3200
10.6400	1644.2550
10.6500	1994.5600
10.6600	2130.8525
10.6700	2088.8950
10.6800	1943.8625
10.6900	1881.3150
10.7000	2066.6675
10.7100	2048.5575
10.7200	1839.4775
10.7300	2144.0775
10.7400	2257.2150
10.7500	1904.8600
10.7600	1752.3475
10.7700	1778.6650
10.7800	1716.6675
10.7900	1732.8200
10.8000	1955.7350
10.8100	2015.0875
10.8200	1771.2000
10.8300	1838.9675
10.8400	1926.7475
10.8500	2067.7800
10.8600	2074.4800
10.8700	1952.2000
10.8800	1966.9350
10.8900	1751.8025
10.9000	2020.9850
10.9100	2059.7275
10.9200	1726.2625
10.9300	1866.6675
10.9400	1854.0350
10.9500	1673.9875
10.9600	1793.7250
10.9700	1956.1950
10.9800	2053.0775
10.9900	2092.8675
11.0000	1980.2975
11.0100	1926.2975
11.0200	1820.6600
11.0300	1878.3750
11.0400	1801.9700
11.0500	1848.9825
11.0600	2094.1725
11.0700	1999.0350
11.0800	1983.3325
11.0900	1985.2350
11.1000	2019.4975
11.1100	2052.6100
11.1200	1819.4575
11.1300	1876.8250
11.1400	2048.1675
11.1500	2024.8550
11.1600	2157.6375
11.1700	1995.5200
11.1800	1926.4475
11.1900	2088.5300
11.2000	1878.9550
11.2100	1795.6575
11.2200	1707.1875
11.2300	1546.1575
11.2400	1790.1175
11.2500	1920.0300
11.2600	1992.5100
11.2700	2157.5650
11.2800	1976.7700
11.2900	1844.3050
11.3000	1735.7525
11.3100	1794.5300
11.3200	2030.1450
11.3300	2283.4950
11.3400	1953.1175
11.3500	2018.9825
11.3600	2064.3700
11.3700	2016.6675
11.3800	2006.8975
11.3900	1802.2325
11.4000	1850.0000
11.4100	1853.6525
11.4200	1927.5450
11.4300	1793.5500
11.4400	1659.9375
11.4500	1884.7400
11.4600	1913.1875
11.4700	1836.7775
11.4800	1920.0775
11.4900	1996.6250
11.5000	1915.9975
11.5100	1899.3400
11.5200	1893.7975
11.5300	2140.2925
11.5400	1903.2000
11.5500	1978.2675
11.5600	1855.6350
11.5700	2000.6200
11.5800	2008.7075
11.5900	1798.7900
11.6000	1770.2550
11.6100	1862.5275
11.6200	1752.3375
11.6300	1818.9750
11.6400	1879.3425
11.6500	1769.4825
11.6600	1855.5600
11.6700	2014.4700
11.6800	1947.2900
11.6900	1865.5975
11.7000	1833.8625
11.7100	1856.7725
11.7200	2065.6400
11.7300	2034.3475
11.7400	2066.1675
11.7500	2050.0000
11.7600	2049.5150
11.7700	2029.0250
11.7800	1883.3325
11.7900	1882.4050
11.8000	1851.3725
11.8100	1895.9475
11.8200	1751.7725
11.8300	1819.2825
11.8400	1916.2375
11.8500	1899.5775
11.8600	1887.0675
11.8700	2034.1500
11.8800	2065.0650
11.8900	1999.2125
11.9000	1962.0300
11.9100	1771.2175
11.9200	1969.6450
11.9300	2102.9200
11.9400	2231.5425
11.9500	2151.4025
11.9600	2210.1350
11.9700	1896.6350
11.9800	1734.6500
11.9900	1801.9350
12.0000	1904.7275
12.0100	2147.8450
12.0200	2029.7225
12.0300	1834.2150
12.0400	1883.0475
12.0500	1863.8725
12.0600	1698.6400
12.0700	1620.3775
12.0800	1849.4850
12.0900	1818.1700
12.1000	1920.3200
12.1100	2165.7200
12.1200	2097.0200
12.1300	1883.5550
12.1400	1901.0750
12.1500	1983.9550
12.1600	2031.9300
12.1700	1913.7675
12.1800	1670.5725
12.1900	2018.4550
12.2000	2180.5875
12.2100	1917.9825
12.2200	2048.9000
12.2300	1932.5825
12.2400	1851.1425
12.2500	1982.9275
12.2600	1934.6150
12.2700	2099.3950
12.2800	2016.4400
12.2900	1982.4800
12.3000	1849.9000
12.3100	1833.4250
12.3200	1849.4925
12.3300	1750.9300
12.3400	1950.5625
12.3500	2082.7675
12.3600	1933.5575
12.3700	2000.2425
12.3800	2082.6750
12.3900	1816.4625
12.4000	1717.0125
12.4100	1933.1775
12.4200	1800.0975
12.4300	1933.3525
12.4400	1999.9900
12.4500	1916.7150
12.4600	1900.0175
12.4700	2083.0650
12.4800	2083.3325
12.4900	2000.1950
12.5000	1916.8975
12.5100	1850.2150
12.5200	1966.2400
12.5300	1667.8950
12.5400	1815.9850
12.5500	1667.4125
12.5600	1799.2775
12.5700	1816.5700
12.5800	1766.9825
12.5900	1733.5575
12.6000	1700.2400
12.6100	1766.1575
12.6200	1832.7950
12.6300	1965.5325
12.6400	1784.9725
12.6500	1601.7200
12.6600	1748.5250
12.6700	1980.9375
12.6800	1900.8925
12.6900	1965.9225
12.7000	1933.7200
12.7100	1867.4700
12.7200	2162.9225
12.7300	2150.2150
12.7400	2215.7750
12.7500	2183.7950
12.7600	1805.4650
12.7700	1882.1075
12.7800	2063.8900
12.7900	1968.2250
12.8000	1720.6750
12.8100	1716.6675
12.8200	1946.0500
12.8300	2048.2625
12.8400	2066.3700
12.8500	1968.4925
12.8600	1950.3125
12.8700	1835.5675
12.8800	1833.3325
12.8900	1947.6600
12.9000	1950.0000
12.9100	1933.6825
12.9200	1868.0925
12.9300	1752.5475
12.9400	1717.4100
12.9500	1863.2575
12.9600	1655.0225
12.9700	1747.6375
12.9800	1912.6550
12.9900	1786.6025
13.0000	1945.8375
13.0100	1901.2700
13.0200	1900.0000
13.0300	1997.3675
13.0400	2064.8825
13.0500	2099.0925
13.0600	1856.9175
13.0700	1866.1975
13.0800	1866.6675
13.0900	2028.4975
13.1000	2065.6850
13.1100	1969.6600
13.1200	2031.3075
13.1300	1758.7325
13.1400	1507.8200
13.1500	1790.4825
13.1600	1816.1300
13.1700	1719.9300
13.1800	1942.2800
13.1900	2014.4300
13.2000	1936.1650
13.2100	2239.0950
13.2200	1912.2125
13.2300	1867.8450
13.2400	1657.7575
13.2500	1650.0000
13.2600	1810.5500
13.2700	1928.9975
13.2800	1772.9350
13.2900	1814.7625
13.3000	2105.1100
13.3100	2084.6325
13.3200	1875.2100
13.3300	1834.6625
13.3400	1833.3325
13.3500	1961.2275
13.3600	1822.8550
13.3700	1736.8100
13.3800	1669.4775
13.3900	1810.2725
13.4000	1912.3600
13.4100	1948.5500
13.4200	1838.4650
13.4300	1881.1100
13.4400	2042.5150
13.4500	2097.7325
13.4600	1893.2625
13.4700	1883.3325
13.4800	1962.7725
13.4900	1903.1475
13.5000	1931.7450
13.5100	1933.3325
13.5200	1980.9050
13.5300	1967.4850
13.5400	1776.5650
13.5500	1814.1700
13.5600	1879.9725
13.5700	1914.9700
13.5800	1805.9875
13.5900	1531.3400
13.6000	1595.6450
13.6100	1663.1525
13.6200	1966.4975
13.6300	1762.5125
13.6400	1529.2875
13.6500	1768.7875
13.6600	1909.3325
13.6700	2026.8625
13.6800	1671.4425
13.6900	1822.9950
13.7000	1911.9275
13.7100	1759.5525
13.7200	1718.5925
13.7300	1826.5375
13.7400	2147.0975
13.7500	2119.6250
13.7600	1928.5925
13.7700	1807.0125
13.7800	1862.6300
13.7900	2101.4100
13.8000	1975.8900
13.8100	1888.4950
13.8200	1883.3325
13.8300	1836.4775
13.8400	1567.9475
13.8500	1721.6350
13.8600	1717.7375
13.8700	1716.6675
13.8800	1794.5650
13.8900	1940.1500
13.9000	1950.0000
13.9100	1996.6700
13.9200	1906.7075
13.9300	1962.1650
13.9400	1920.0675
13.9500	1963.2425
13.9600	1780.4525
13.9700	1704.6275
13.9800	1793.0125
13.9900	1830.9900
14.0000	1755.9000
14.0100	1765.4800
14.0200	1967.7900
14.0300	1983.3325
14.0400	1766.9575
14.0500	1842.6850
14.0600	1741.9225
14.0700	1995.6775
14.0800	2232.6050
14.0900	1833.7600
14.1000	1969.4925
14.1100	1937.1325
14.1200	1810.1900
14.1300	1753.8450
14.1400	1826.8850
14.1500	1910.1800
14.1600	1855.2200
14.1700	1880.7075
14.1800	1760.5675
14.1900	1811.3525
14.2000	1923.9775
14.2100	1902.6900
14.2200	2037.8300
14.2300	2034.6925
14.2400	1926.2425
14.2500	2207.1925
14.2600	1897.1075
14.2700	1759.7400
14.2800	1643.1300
14.2900	1663.8525
14.3000	1590.4100
14.3100	1766.2550
14.3200	1752.8625
14.3300	1689.0900
14.3400	1805.0925
14.3500	1816.6675
14.3600	1801.4625
14.3700	1739.2150
14.3800	1778.8975
14.3900	1859.2350
14.4000	1851.4950
14.4100	1895.4925
14.4200	2006.0975
14.4300	2031.8150
14.4400	1987.9100
14.4500	1862.2700
14.4600	2061.7500
14.4700	1962.3975
14.4800	1904.6725
14.4900	2005.7075
14.5000	1880.8275
14.5100	1957.1775
14.5200	1815.8950
14.5300	1709.5850
14.5400	1730.1225
14.5500	1838.7075
14.5600	1970.3625
14.5700	1817.9200
14.5800	1935.2650
14.5900	2025.1075
14.6000	1958.2650
14.6100	1965.0050
14.6200	1846.6850
14.6300	1908.2825
14.6400	1811.7950
14.6500	1904.8150
14.6600	1961.5650
14.6700	2026.4975
14.6800	1973.5350
14.6900	1697.7150
14.7000	1905.6075
14.7100	1873.6300
14.7200	1792.0775
14.7300	1604.4175
14.7400	1672.7425
14.7500	1921.6325
14.7600	1994.6575
14.7700	1910.7350
14.7800	1825.6525
14.7900	1712.6350
14.8000	1744.5600
14.8100	1735.1550
14.8200	1644.3075
14.8300	1603.6750
14.8400	1837.1425
14.8500	2014.8000
14.8600	1988.9175
14.8700	1864.9550
14.8800	1923.9450
14.8900	1903.7700
14.9000	1944.3200
14.9100	1964.7650
14.9200	1981.4225
14.9300	1673.6050
14.9400	1633.3325
14.9500	1810.1275
14.9600	1951.1300
14.9700	2040.2500
14.9800	2094.1250
14.9900	2085.3000
15.0000	1760.1000
15.0100	1643.2450
15.0200	1736.0675
15.0300	1852.6775
15.0400	1866.6675
15.0500	2027.8375
15.0600	1976.7800
15.0700	1864.2175
15.0800	1732.9800
15.0900	1643.5700
15.1000	1618.7225
15.1100	1660.4775
15.1200	1768.8325
15.1300	1637.4625
15.1400	1762.4550
15.1500	1725.0500
15.1600	1818.6050
15.1700	1731.4525
15.1800	1702.1200
15.1900	1859.9200
15.2000	1781.6225
15.2100	1723.1000
15.2200	1774.7225
15.2300	1710.8050
15.2400	1685.5025
15.2500	1741.2900
15.2600	1721.0375
15.2700	1861.3975
15.2800	2056.9125
15.2900	1953.2225
15.3000	1817.7450
15.3100	1973.2850
15.3200	1826.8125
15.3300	1915.3925
15.3400	1832.4225
15.3500	1831.0750
15.3600	1718.1375
15.3700	1815.1300
15.3800	1847.7175
15.3900	1850.0000
15.4000	1864.3675
15.4100	1881.0250
15.4200	1883.3325
15.4300	1969.3850
15.4400	1796.9925
15.4500	1766.6675
15.4600	1852.5725
15.4700	1795.1200
15.4800	1754.7325
15.4900	1792.8775
15.5000	1971.4150
15.5100	1842.9600
15.5200	1945.0800
15.5300	2052.2250
15.5400	1909.8975
15.5500	1498.7600
15.5600	1319.4525
15.5700	1584.5400
15.5800	1747.0825
15.5900	1638.7725
15.6000	1616.6675
15.6100	1900.5450
15.6200	1893.2575
15.6300	1769.9150
15.6400	1764.1700
15.6500	1639.2175
15.6600	1644.9725
15.6700	1763.1550
15.6800	1755.0600
15.6900	1961.9175
15.7000	1858.8050
15.7100	1776.8875
15.7200	1879.4900
15.7300	2012.7575
15.7400	1864.2975
15.7500	1847.4125
15.7600	1765.5800
15.7700	1750.0000
15.7800	1792.1600
15.7900	1800.0000
15.8000	1996.5125
15.8100	1822.9075
15.8200	1713.2325
15.8300	1756.0475
15.8400	1682.6475
15.8500	1778.6275
15.8600	1646.1450
15.8700	1504.8400
15.8800	1637.0050
15.8900	1652.7050
15.9000	1580.2325
15.9100	1664.2825
15.9200	1641.5225
15.9300	1967.6150
15.9400	2130.7750
15.9500	1621.3550
15.9600	1558.3775
15.9700	1969.6225
15.9800	1925.0200
15.9900	1719.5825
16.0000	1822.0325
16.0100	1780.6925
16.0200	1711.2525
16.0300	1935.3625
16.0400	1844.9675
16.0500	1871.9800
16.0600	1772.7750
16.0700	1763.8125
16.0800	1725.2575
16.0900	1661.4875
16.1000	1677.5725
16.1100	1779.7775
16.1200	1937.6950
16.1300	1815.2950
16.1400	1769.5800
16.1500	1656.7125
16.1600	1688.2775
16.1700	1713.7275
16.1800	1716.6675
16.1900	1538.4275
16.2000	1732.9400
16.2100	1687.4750
16.2200	1666.6675
16.2300	1611.9575
16.2400	1654.6750
16.2500	1912.5500
16.2600	1775.5425
16.2700	1692.4025
16.2800	1765.1425
16.2900	1728.8275
16.3000	1703.0475
16.3100	1781.6575
16.3200	1827.2025
16.3300	1846.9250
16.3400	1700.5725
16.3500	1598.7875
16.3600	1746.1425
16.3700	2027.3950
16.3800	1676.8175
16.3900	1691.6700
16.4000	1757.2675
16.4100	1928.9675
16.4200	1817.9825
16.4300	1756.3175
16.4400	1790.5000
16.4500	1719.0525
16.4600	1646.0700
16.4700	1485.1175
16.4800	1665.4525
16.4900	1783.9525
16.5000	1746.2050
16.5100	1854.2975
16.5200	1829.6050
16.5300	1776.3975
16.5400	1820.3250
16.5500	1819.9275
16.5600	1736.2800
16.5700	1850.5600
16.5800	1856.5725
16.5900	1729.6500
16.6000	1673.2725
16.6100	1760.1550
16.6200	1876.7600
16.6300	1859.9850
16.6400	1810.0100
16.6500	1773.3575
16.6600	1766.6675
16.6700	1673.5375
16.6800	1650.0000
16.6900	1716.4350
16.7000	1852.8400
16.7100	1870.0625
16.7200	1654.4825
16.7300	1706.0250
16.7400	1799.5550
16.7500	1790.1950
16.7600	1717.1975
16.7700	1660.3425
16.7800	1940.6250
16.7900	2043.0700
16.8000	1891.6825
16.8100	1665.4150
16.8200	1787.9550
16.8300	1859.6675
16.8400	1800.8725
16.8500	1480.8775
16.8600	1702.2600
16.8700	1835.8650
16.8800	1850.0000
16.8900	1679.4925
16.9000	1515.3675
16.9100	1666.7175
16.9200	1795.2075
16.9300	1868.9925
16.9400	1922.5525
16.9500	1815.7525
16.9600	1744.1650
16.9700	1733.3325
16.9800	1720.2950
16.9900	1768.7875
17.0000	1692.1825
17.0100	1744.7425
17.0200	1597.6125
17.0300	1524.0100
17.0400	1594.5875
17.0500	1512.8400
17.0600	1651.9400
17.0700	1712.9600
17.0800	1729.6200
17.0900	1733.3325
17.1000	1629.8525
17.1100	1768.0450
17.1200	1868.3375
17.1300	1883.3325
17.1400	1805.9300
17.1500	1822.0100
17.1600	1846.2175
17.1700	1811.3750
17.1800	1825.7325
17.1900	1756.1900
17.2000	1733.3325
17.2100	1746.1725
17.2200	1608.8550
17.2300	1605.1350
17.2400	1642.2950
17.2500	1714.0275
17.2600	1797.3175
17.2700	1701.5750
17.2800	1666.6675
17.2900	1692.2075
17.3000	1776.5725
17.3100	1736.2325
17.3200	1652.9425
17.3300	1658.8050
17.3400	1743.0300
17.3500	1830.2600
17.3600	1862.7100
17.3700	1663.4475
17.3800	1625.3850
17.3900	1658.7000
17.4000	1514.5650
17.4100	1555.3325
17.4200	1646.6225
17.4300	1540.1775
17.4400	1512.6400
17.4500	1693.5100
17.4600	1838.3600
17.4700	1702.6825
17.4800	1763.4500
17.4900	1900.7750
17.5000	1820.0425
17.5100	1745.5950
17.5200	1708.1925
17.5300	1574.3825
17.5400	1570.9925
17.5500	1721.3200
17.5600	1691.4525
17.5700	1629.0850
17.5800	1666.7400
17.5900	1683.3325
17.6000	1683.3325
17.6100	1658.3500
17.6200	1450.2700
17.6300	1632.8200
17.6400	1916.1175
17.6500	1933.5050
17.6600	1829.5300
17.6700	1762.6825
17.6800	1700.2775
17.6900	1621.2250
17.7000	1612.4125
17.7100	1728.3050
17.7200	1692.2950
17.7300	1740.9875
17.7400	1729.5325
17.7500	1753.7750
17.7600	1865.5500
17.7700	1887.6475
17.7800	1784.5925
17.7900	1737.6650
17.8000	1757.9825
17.8100	1668.1350
17.8200	1670.2550
17.8300	1769.4250
17.8400	1800.0000
17.8500	1640.3450
17.8600	1534.2450
17.8700	1798.7275
17.8800	1850.9800
17.8900	1686.3825
17.9000	1645.5700
17.9100	1784.5125
17.9200	1613.3825
17.9300	1557.7550
17.9400	1603.2725
17.9500	1848.3325
17.9600	1799.3075
17.9700	1725.6500
17.9800	1753.1650
17.9900	1815.2975
18.0000	1833.3325
18.0100	1748.3525
18.0200	1753.0600
18.0300	1742.4225
18.0400	1696.9925
18.0500	1719.6475
18.0600	1745.4300
18.0700	1737.9125
18.0800	1793.7225
18.0900	1732.1825
18.1000	1748.2425
18.1100	1670.2550
18.1200	1597.2050
18.1300	1607.4000
18.1400	1640.7175
18.1500	1517.8250
18.1600	1550.7175
18.1700	1691.3175
18.1800	1613.4400
18.1900	1614.5875
18.2000	1669.2475
18.2100	1432.1150
18.2200	1608.2725
18.2300	1788.3375
18.2400	1756.9875
18.2500	1578.2800
18.2600	1647.7675
18.2700	1842.9125
18.2800	1852.3975
18.2900	1809.5500
18.3000	1752.4700
18.3100	1780.8275
18.3200	1835.5950
18.3300	1707.7275
18.3400	1602.6125
18.3500	1654.3625
18.3600	1789.7975
18.3700	1691.4900
18.3800	1668.7675
18.3900	1647.9250
18.4000	1668.7150
18.4100	1695.1175
18.4200	1723.5525
18.4300	1721.5675
18.4400	1669.6350
18.4500	1591.2550
18.4600	1660.5875
18.4700	1688.2700
18.4800	1800.5550
18.4900	1779.7200
18.5000	1738.2950
18.5100	1592.9900
18.5200	1556.7050
18.5300	1590.0225
18.5400	1681.6800
18.5500	1705.0075
18.5600	1536.8925
18.5700	1501.5900
18.5800	1737.6850
18.5900	1786.8400
18.6000	1569.2175
18.6100	1610.9950
18.6200	1666.6675
18.6300	1573.9650
18.6400	1568.0700
18.6500	1594.9025
18.6600	1600.0000
18.6700	1692.4150
18.6800	1710.2475
18.6900	1619.2625
18.7000	1594.8575
18.7100	1634.5475
18.7200	1626.9850
18.7300	1524.6825
18.7400	1563.7550
18.7500	1565.5600
18.7600	1446.7625
18.7700	1445.8475
18.7800	1661.3650
18.7900	1750.0000
18.8000	1738.5650
18.8100	1859.0175
18.8200	1916.6675
18.8300	1756.9575
18.8400	1649.1375
18.8500	1678.8925
18.8600	1631.7150
18.8700	1486.2825
18.8800	1353.7950
18.8900	1441.5575
18.9000	1511.3450
18.9100	1403.3100
18.9200	1519.9000
18.9300	1713.1775
18.9400	1710.1225
18.9500	1773.7300
18.9600	1760.2150
18.9700	1857.4300
18.9800	1770.1250
18.9900	1452.2050
19.0000	1524.6575
19.0100	1751.6100
19.0200	1940.2650
19.0300	2067.3625
19.0400	1898.0725
19.0500	1721.5375
19.0600	1616.1325
19.0700	1560.9525
19.0800	1471.7275
19.0900	1612.0975
19.1000	1722.3275
19.1100	1699.8700
19.1200	1516.1500
19.1300	1633.7925
19.1400	1788.9700
19.1500	1972.3250
19.1600	1850.0325
19.1700	1605.6975
19.1800	1466.7875
19.1900	1499.8250
19.2000	1522.2600
19.2100	1583.0500
19.2200	1694.0500
19.2300	1788.5625
19.2400	1750.4475
19.2500	1749.7500
19.2600	1766.6675
19.2700	1799.6950
19.2800	1805.6675
19.2900	1712.0700
19.3000	1776.4875
19.3100	1778.4675
19.3200	1760.9650
19.3300	1722.8475
19.3400	1678.1100
19.3500	1754.1575
19.3600	1810.9275
19.3700	1762.0750
19.3800	1722.4250
19.3900	1716.6675
19.4000	1585.9750
19.4100	1658.1300
19.4200	1700.7150
19.4300	1661.6075
19.4400	1682.5625
19.4500	1689.1550
19.4600	1650.8250
19.4700	1730.7750
19.4800	1923.9650
19.4900	1837.8700
19.5000	1836.3975
19.5100	1904.9150
19.5200	1733.3850
19.5300	1579.4725
19.5400	1485.4225
19.5500	1536.0300
19.5600	1604.8225
19.5700	1659.6075
19.5800	1726.2375
19.5900	1621.3950
19.6000	1721.3275
19.6100	1763.1725
19.6200	1658.5050
19.6300	1552.5825
19.6400	1538.0100
19.6500	1624.6350
19.6600	1709.2775
19.6700	1669.4700
19.6800	1441.9100
19.6900	1471.4650
19.7000	1709.2450
19.7100	1683.3225
19.7200	1606.0675
19.7300	1674.1200
19.7400	1653.1900
19.7500	1595.5250
19.7600	1615.0175
19.7700	1622.7825
19.7800	1753.7225
19.7900	1833.3325
19.8000	1685.9925
19.8100	1684.1225
19.8200	1701.8150
19.8300	1767.3075
19.8400	1848.1300
19.8500	1856.1875
19.8600	1692.9625
19.8700	1568.6200
19.8800	1644.0575
19.8900	1700.0000
19.9000	1668.7025
19.9100	1618.7300
19.9200	1600.0000
19.9300	1547.9775
19.9400	1537.4575
19.9500	1664.2475
19.9600	1785.2175
19.9700	1744.0925
19.9800	1813.9425
19.9900	1935.0800
20.0000	1863.2650
20.0100	1634.7075
20.0200	1584.9400
20.0300	1575.4175
20.0400	1539.6975
20.0500	1533.3325
20.0600	1615.6100
20.0700	1646.1150
20.0800	1582.0025
20.0900	1611.5400
20.1000	1578.2675
20.1100	1512.8575
20.1200	1704.5825
20.1300	1761.7950
20.1400	1726.8775
20.1500	1723.1325
20.1600	1665.7075
20.1700	1704.6125
20.1800	1627.9175
20.1900	1529.6725
20.2000	1699.4575
20.2100	1715.2100
20.2200	1690.5450
20.2300	1635.6500
20.2400	1522.6250
20.2500	1473.2250
20.2600	1456.5675
20.2700	1530.7200
20.2800	1532.9300
20.2900	1550.3575
20.3000	1593.3950
20.3100	1589.9475
20.3200	1533.1150
20.3300	1479.9325
20.3400	1476.6925
20.3500	1533.4125
20.3600	1636.7125
20.3700	1603.3550
20.3800	1649.8775
20.3900	1736.6250
20.4000	1710.1225
20.4100	1573.7750
20.4200	1529.8525
20.4300	1569.8825
20.4400	1652.8575
20.4500	1709.9225
20.4600	1756.3200
20.4700	1694.1975
20.4800	1692.7025
20.4900	1624.5925
20.5000	1540.1250
20.5100	1582.6675
20.5200	1606.8100
20.5300	1580.3025
20.5400	1665.0550
20.5500	1752.9925
20.5600	1678.2850
20.5700	1675.5325
20.5800	1746.0700
20.5900	1590.4075
20.6000	1544.9300
20.6100	1658.6400
20.6200	1748.8200
20.6300	1676.0300
20.6400	1570.7625
20.6500	1569.4725
20.6600	1534.7000
20.6700	1519.4350
20.6800	1436.2525
20.6900	1531.5450
20.7000	1746.8950
20.7100	1826.3475
20.7200	1717.2850
20.7300	1594.6875
20.7400	1614.9275
20.7500	1621.0725
20.7600	1561.4675
20.7700	1677.6925
20.7800	1773.7200
20.7900	1757.0625
20.8000	1807.5750
20.8100	1821.2400
20.8200	1771.2700
20.8300	1807.4050
20.8400	1639.7175
20.8500	1569.2725
20.8600	1690.5700
20.8700	1676.1525
20.8800	1680.9375
20.8900	1754.7125
20.9000	1840.3450
20.9100	1788.4075
20.9200	1792.5325
20.9300	1878.4225
20.9400	1852.6775
20.9500	1750.4825
20.9600	1700.0000
20.9700	1784.9250
20.9800	1934.8425
20.9900	1971.7475
21.0000	1874.7350
21.0100	1891.8550
21.0200	1912.4425
21.0300	1836.4350
21.0400	1949.9275
21.0500	2094.7500
21.0600	2069.9075
21.0700	2108.0700
21.0800	1961.3450
21.0900	1706.7675
21.1000	1856.8675
21.1100	2154.2925
21.1200	2184.9350
21.1300	2031.1900
21.1400	1959.2775
21.1500	2068.6025
21.1600	2205.5450
21.1700	2139.0250
21.1800	2086.9550
21.1900	2153.5825
21.2000	2229.4325
21.2100	2423.2425
21.2200	2522.3975
21.2300	2389.7025
21.2400	2355.0925
21.2500	2198.2050
21.2600	2216.5950
21.2700	2412.4350
21.2800	2477.4325
21.2900	2399.5175
21.3000	2362.2925
21.3100	2463.8100
21.3200	2498.4550
21.3300	2547.0125
21.3400	2563.6500
21.3500	2542.4125
21.3600	2423.0400
21.3700	2352.9025
21.3800	2455.7300
21.3900	2552.8275
21.4000	2574.3025
21.4100	2611.7725
21.4200	2821.2250
21.4300	3263.7450
21.4400	3615.5875
21.4500	3780.8500
21.4600	4226.9075
21.4700	5159.5850
21.4800	5951.9850
21.4900	6693.2300
21.5000	7732.0500
21.5100	8544.5775
21.5200	9771.9650
21.5300	11338.1850
21.5400	12740.8050
21.5500	14723.3000
21.5600	17127.5100
21.5700	19750.0525
21.5800	22873.0950
21.5900	26220.1450
21.6000	29365.9125
21.6100	32656.6575
21.6200	36062.4925
21.6300	38446.0250
21.6400	40916.6350
21.6500	43127.1200
21.6600	44383.3675
21.6700	44343.6600
21.6800	42328.3000
21.6900	39090.4025
21.7000	34568.6950
21.7100	29577.5025
21.7200	25134.0700
21.7300	21712.3450
21.7400	18204.7800
21.7500	14643.6625
21.7600	11843.0625
21.7700	9134.5200
21.7800	6845.6100
21.7900	5404.3800
21.8000	4510.7000
21.8100	3985.8100
21.8200	3626.1625
21.8300	3372.9750
21.8400	3196.0850
21.8500	3083.3325
21.8600	3186.4600
21.8700	3163.1500
21.8800	2989.9750
21.8900	2950.4650
21.9000	2941.0000
21.9100	2831.2025
21.9200	2869.5150
21.9300	2974.8050
21.9400	2830.3825
21.9500	2648.9500
21.9600	2633.9950
21.9700	2717.6000
21.9800	2673.3925
21.9900	2481.6925
22.0000	2467.9375
22.0100	2406.3350
22.0200	2469.2600
22.0300	2582.3475
22.0400	2289.4425
22.0500	2125.3975
22.0600	2149.8600
22.0700	2024.2175
22.0800	2042.4275
22.0900	2074.5475
22.1000	1966.6025
22.1100	1933.2900
22.1200	1925.0125
22.1300	1858.3075
22.1400	1766.6800
22.1500	1733.3650
22.1600	1658.5150
22.1700	1658.0850
22.1800	1816.1275
22.1900	1924.9450
22.2000	1908.5250
22.2100	1858.5550
22.2200	1742.5825
22.2300	1666.4800
22.2400	1691.5650
22.2500	1691.7775
22.2600	1716.1800
22.2700	1733.5950
22.2800	1716.6675
22.2900	1708.4825
22.3000	1765.3875
22.3100	1833.3325
22.3200	1743.6350
22.3300	1592.9875
22.3400	1574.0100
22.3500	1657.2950
22.3600	1756.8125
22.3700	1816.6675
22.3800	1711.4100
22.3900	1624.2625
22.4000	1641.9225
22.4100	1609.1300
22.4200	1615.5675
22.4300	1674.1450
22.4400	1651.7650
22.4500	1551.8225
22.4600	1516.0400
22.4700	1533.3325
22.4800	1589.3375
22.4900	1642.0100
22.5000	1545.5375
22.5100	1497.8300
22.5200	1565.9250
22.5300	1543.5700
22.5400	1484.1150
22.5500	1450.8000
22.5600	1449.1800
22.5700	1474.5800
22.5800	1570.2825
22.5900	1642.9825
22.6000	1727.0600
22.6100	1826.3725
22.6200	1752.8025
22.6300	1676.4300
22.6400	1634.3075
22.6500	1616.6675
22.6600	1585.3575
22.6700	1510.9100
22.6800	1466.6675
22.6900	1513.4575
22.7000	1543.3000
22.7100	1516.6675
22.7200	1571.0550
22.7300	1555.7325
22.7400	1466.6675
22.7500	1528.5925
22.7600	1522.6875
22.7700	1471.9400
22.7800	1539.8025
22.7900	1528.1550
22.8000	1629.4925
22.8100	1746.2200
22.8200	1667.9875
22.8300	1703.6450
22.8400	1797.2825
22.8500	1749.2450
22.8600	1642.3650
22.8700	1595.2075
22.8800	1542.3850
22.8900	1601.7850
22.9000	1584.5850
22.9100	1497.0125
22.9200	1525.7575
22.9300	1509.1000
22.9400	1439.5400
22.9500	1434.5950
22.9600	1629.7375
22.9700	1616.1000
22.9800	1425.8150
22.9900	1461.7200
23.0000	1539.1650
23.0100	1514.2375
23.0200	1464.9600
23.0300	1572.9775
23.0400	1601.2650
23.0500	1537.2550
23.0600	1568.4500
23.0700	1520.2725
23.0800	1431.3800
23.0900	1448.2025
23.1000	1520.3900
23.1100	1475.9400
23.1200	1451.9000
23.1300	1411.2125
23.1400	1368.6050
23.1500	1372.0625
23.1600	1400.0000
23.1700	1436.6750
23.1800	1490.6575
23.1900	1448.7925
23.2000	1324.8875
23.2100	1344.8475
23.2200	1466.6675
23.2300	1444.8375
23.2400	1467.5350
23.2500	1489.7900
23.2600	1440.5800
23.2700	1413.8100
23.2800	1424.4925
23.2900	1601.0575
23.3000	1646.8275
23.3100	1518.9350
23.3200	1507.1900
23.3300	1509.4875
23.3400	1514.3400
23.3500	1612.0950
23.3600	1652.3125
23.3700	1616.6525
23.3800	1597.7600
23.3900	1518.9400
23.4000	1580.8900
23.4100	1528.9800
23.4200	1504.2550
23.4300	1642.4950
23.4400	1657.5625
23.4500	1621.1900
23.4600	1628.8400
23.4700	1578.8700
23.4800	1528.8975
23.4900	1457.8550
23.5000	1421.0425
23.5100	1435.9900
23.5200	1395.6825
23.5300	1345.7100
23.5400	1358.5200
23.5500	1430.5975
23.5600	1477.8250
23.5700	1558.3450
23.5800	1526.4900
23.5900	1413.8550
23.6000	1474.8350
23.6100	1457.3525
23.6200	1370.6925
23.6300	1338.0075
23.6400	1256.8775
23.6500	1328.4825
23.6600	1402.9500
23.6700	1383.3325
23.6800	1355.9775
23.6900	1234.7125
23.7000	1198.5025
23.7100	1405.1975
23.7200	1512.9325
23.7300	1503.7050
23.7400	1540.1150
23.7500	1502.6025
23.7600	1419.8100
23.7700	1413.5025
23.7800	1426.5925
23.7900	1423.3975
23.8000	1325.7775
23.8100	1220.3675
23.8200	1306.7025
23.8300	1390.2900
23.8400	1553.4650
23.8500	1559.9250
23.8600	1376.7000
23.8700	1326.5525
23.8800	1410.0225
23.8900	1386.7300
23.9000	1366.6675
23.9100	1366.6675
23.9200	1366.6675
23.9300	1399.6425
23.9400	1482.9275
23.9500	1520.1825
23.9600	1526.2650
23.9700	1494.5475
23.9800	1350.6000
23.9900	1326.1475
24.0000	1484.1525
24.0100	1608.0125
24.0200	1555.7100
24.0300	1551.6900
24.0400	1469.4625
24.0500	1474.0875
24.0600	1472.1425
24.0700	1565.6250
24.0800	1545.7300
24.0900	1388.2600
24.1000	1284.5200
24.1100	1226.9150
24.1200	1242.3050
24.1300	1334.5325
24.1400	1371.9375
24.1500	1280.8600
24.1600	1313.7050
24.1700	1429.3875
24.1800	1443.6500
24.1900	1477.7200
24.2000	1556.3325
24.2100	1503.4525
24.2200	1456.8050
24.2300	1499.5850
24.2400	1429.2500
24.2500	1462.5650
24.2600	1495.8775
24.2700	1460.3025
24.2800	1366.6675
24.2900	1366.6675
24.3000	1404.0675
24.3100	1398.2075
24.3200	1382.7525
24.3300	1574.8150
24.3400	1542.3375
24.3500	1336.2700
24.3600	1218.5225
24.3700	1268.4950
24.3800	1287.6900
24.3900	1303.5375
24.4000	1391.2075
24.4100	1372.0800
24.4200	1315.5925
24.4300	1454.9525
24.4400	1482.9450
24.4500	1354.4950
24.4600	1375.8675
24.4700	1462.1325
24.4800	1404.5950
24.4900	1212.2450
24.5000	1237.4100
24.5100	1480.1375
24.5200	1358.8275
24.5300	1068.0225
24.5400	1171.9750
24.5500	1329.9400
24.5600	1347.4650
24.5700	1337.0475
24.5800	1475.0425
24.5900	1609.4875
24.6000	1681.0325
24.6100	1533.6600
24.6200	1353.7375
24.6300	1317.7275
24.6400	1320.5025
24.6500	1272.5575
24.6600	1259.8125
24.6700	1216.6675
24.6800	1304.5700
24.6900	1396.4625
24.7000	1336.7525
24.7100	1373.3750
24.7200	1339.7025
24.7300	1530.2675
24.7400	1347.7900
24.7500	1284.7475
24.7600	1355.7825
24.7700	1412.8400
24.7800	1459.6675
24.7900	1314.3100
24.8000	1235.0125
24.8100	1339.0650
24.8200	1338.5550
24.8300	1339.5175
24.8400	1406.1450
24.8500	1364.6050
24.8600	1251.1475
24.8700	1355.6725
24.8800	1355.3400
24.8900	1350.2950
24.9000	1377.6900
24.9100	1423.0050
24.9200	1488.3400
24.9300	1394.3850
24.9400	1355.3125
24.9500	1339.1625
24.9600	1433.4200
24.9700	1399.7700
24.9800	1255.5375
24.9900	1222.2225
25.0000	1255.4525
25.0100	1350.0600
25.0200	1277.9875
25.0300	1188.9675
25.0400	1238.2425
25.0500	1372.3425
25.0600	1300.6250
25.0700	1161.6675
25.0800	1154.3950
25.0900	1310.9125
25.1000	1327.8875
25.1100	1311.2300
25.1200	1343.4150
25.1300	1406.2475
25.1400	1377.0350
25.1500	1433.3325
25.1600	1368.6850
25.1700	1227.9550
25.1800	1168.3575
25.1900	1077.3825
25.2000	1116.0450
25.2100	1203.3800
25.2200	1348.6350
25.2300	1491.1225
25.2400	1596.9150
25.2500	1425.0500
25.2600	1352.8875
25.2700	1482.5025
25.2800	1469.2450
25.2900	1361.4075
25.3000	1297.5075
25.3100	1230.4875
25.3200	1317.6450
25.3300	1293.7725
25.3400	1321.8775
25.3500	1338.5325
25.3600	1339.6200
25.3700	1275.2250
25.3800	1193.6725
25.3900	1257.9500
25.4000	1334.5500
25.4100	1315.4225
25.4200	1396.1750
25.4300	1494.8800
25.4400	1462.8900
25.4500	1360.5550
25.4600	1258.7900
25.4700	1326.8300
25.4800	1314.5000
25.4900	1283.9475
25.5000	1389.8975
25.5100	1291.0425
25.5200	1177.0475
25.5300	1271.4700
25.5400	1176.6900
25.5500	1230.0125
25.5600	1334.9450
25.5700	1406.7025
25.5800	1343.5550
25.5900	1279.7750
25.6000	1310.3800
25.6100	1216.6675
25.6200	1231.4650
25.6300	1227.2825
25.6400	1128.4200
25.6500	1165.6975
25.6600	1342.0525
25.6700	1419.8500
25.6800	1252.0475
25.6900	1265.3025
25.7000	1417.3075
25.7100	1432.1875
25.7200	1290.8350
25.7300	1345.1750
25.7400	1323.7050
25.7500	1251.9600
25.7600	1166.8925
25.7700	1216.5100
25.7800	1171.5275
25.7900	1300.0175
25.8000	1316.7700
25.8100	1150.0000
25.8200	1159.4700
25.8300	1192.7825
25.8400	1211.9525
25.8500	1209.4100
25.8600	1200.4675
25.8700	1135.4075
25.8800	1164.6325
25.8900	1102.6700
25.9000	1103.9100
25.9100	1181.4175
25.9200	1179.6900
25.9300	1290.7475
25.9400	1248.2025
25.9500	1223.0300
25.9600	1251.1625
25.9700	1175.8400
25.9800	1200.0000
25.9900	1209.1325
26.0000	1278.8975
26.0100	1422.7325
26.0200	1410.7500
26.0300	1198.5600
26.0400	1136.4500
26.0500	1100.0000
26.0600	1153.9625
26.0700	1259.6175
26.0800	1150.0000
26.0900	1208.0725
26.1000	1380.0375
26.1100	1416.6675
26.1200	1381.1675
26.1300	1225.7775
26.1400	1057.8325
26.1500	1112.6675
26.1600	1302.5500
26.1700	1207.8925
26.1800	1135.1775
26.1900	1052.4150
26.2000	1217.4325
26.2100	1284.0575
26.2200	1324.6575
26.2300	1287.0150
26.2400	1258.6375
26.2500	1300.5675
26.2600	1337.1050
26.2700	1269.9825
26.2800	1209.0050
26.2900	1261.9900
26.3000	1191.4825
26.3100	1192.1575
26.3200	1283.6225
26.3300	1307.9600
26.3400	1186.9250
26.3500	1075.2525
26.3600	1158.3975
26.3700	1204.2775
26.3800	1304.2800
26.3900	1420.8350
26.4000	1366.7850
26.4100	1191.5625
26.4200	1258.3875
26.4300	1241.5925
26.4400	1295.5025
26.4500	1358.6750
26.4600	1262.8350
26.4700	1212.2700
26.4800	1245.9200
26.4900	1233.3325
26.5000	1204.9150
26.5100	1145.0150
26.5200	1229.2925
26.5300	1208.6075
26.5400	1203.4350
26.5500	1318.8000
26.5600	1459.3325
26.5700	1307.5175
26.5800	1086.5675
26.5900	1173.8225
26.6000	1250.0000
26.6100	1257.9000
26.6200	1271.5125
26.6300	1268.7100
26.6400	1395.0950
26.6500	1409.8700
26.6600	1306.0275
26.6700	1208.8850
26.6800	1191.0950
26.6900	1216.6675
26.7000	1232.1100
26.7100	1271.7800
26.7200	1233.3325
26.7300	1256.3200
26.7400	1340.9750
26.7500	1328.5550
26.7600	1173.3900
26.7700	1109.8725
26.7800	1234.0325
26.7900	1346.2275
26.8000	1288.1950
26.8100	1129.5825
26.8200	1146.6000
26.8300	1250.0000
26.8400	1238.8350
26.8500	1192.5775
26.8600	1196.2800
26.8700	1266.7725
26.8800	1142.6375
26.8900	1175.4175
26.9000	1401.6425
26.9100	1430.1475
26.9200	1267.2225
26.9300	1189.9525
26.9400	1326.0900
26.9500	1267.4900
26.9600	1139.1925
26.9700	1125.1450
26.9800	1238.1600
26.9900	1320.2400
27.0000	1297.7100
27.0100	1159.5625
27.0200	1204.1825
27.0300	1449.0050
27.0400	1348.1075
27.0500	1202.6150
27.0600	1164.0100
27.0700	1223.6525
27.0800	1229.1025
27.0900	1139.5825
27.1000	1134.6275
27.1100	1283.9300
27.1200	1332.7850
27.1300	1222.0375
27.1400	1046.5775
27.1500	1077.7025
27.1600	1243.1950
27.1700	1199.7025
27.1800	1157.0150
27.1900	1243.2525
27.2000	1206.5775
27.2100	1143.1950
27.2200	1060.0300
27.2300	1080.0000
27.2400	1019.9400
27.2500	1113.2525
27.2600	1160.0600
27.2700	1169.5600
27.2800	1300.2500
27.2900	1243.1550
27.3000	1244.1700
27.3100	1132.1375
27.3200	1349.5525
27.3300	1374.6300
27.3400	1174.2100
27.3500	1108.4450
27.3600	1251.2950
27.3700	1107.0850
27.3800	1076.2175
27.3900	1129.3625
27.4000	1195.9900
27.4100	1256.3075
27.4200	1299.0525
27.4300	1347.8625
27.4400	1263.5425
27.4500	1240.6575
27.4600	1221.7275
27.4700	1322.8550
27.4800	1371.5900
27.4900	1432.8500
27.5000	1261.8850
27.5100	1181.9375
27.5200	1250.0000
27.5300	1262.1375
27.5400	1319.6900
27.5500	1312.2325
27.5600	1210.6575
27.5700	1153.3900
27.5800	1040.5425
27.5900	1155.9500
27.6000	1177.4050
27.6100	1170.6825
27.6200	1304.9450
27.6300	1451.0525
27.6400	1291.2250
27.6500	1267.4875
27.6600	1355.8100
27.6700	1374.6500
27.6800	1307.3700
27.6900	1200.5825
27.7000	1311.9800
27.7100	1481.4025
27.7200	1616.2650
27.7300	1524.8300
27.7400	1491.8075
27.7500	1516.4450
27.7600	1438.9425
27.7700	1477.8475
27.7800	1513.8375
27.7900	1394.4675
27.8000	1275.0375
27.8100	1222.3125
27.8200	1194.1175
27.8300	1333.3325
27.8400	1300.6325
27.8500	1130.6175
27.8600	1122.0775
27.8700	1171.5625
27.8800	1296.7600
27.8900	1345.2650
27.9000	1238.6650
27.9100	1261.3550
27.9200	1209.5250
27.9300	1064.8850
27.9400	979.7925
27.9500	1084.0000
27.9600	1253.6400
27.9700	1185.9300
27.9800	1233.6100
27.9900	1378.0350
28.0000	1171.7975
28.0100	1233.2225
28.0200	1419.2125
28.0300	1405.4425
28.0400	1212.1150
28.0500	1007.5475
28.0600	1067.5400
28.0700	1161.6750
28.0800	1135.8200
28.0900	1179.7075
28.1000	1347.5350
28.1100	1321.0550
28.1200	1259.7825
28.1300	1331.2825
28.1400	1387.5575
28.1500	1192.5075
28.1600	1057.2175
28.1700	1100.0000
28.1800	1083.2975
28.1900	1007.0925
28.2000	1157.0975
28.2100	1202.3550
28.2200	1197.8975
28.2300	1088.0050
28.2400	1125.9700
28.2500	1204.1775
28.2600	1310.2725
28.2700	1162.0750
28.2800	1137.9050
28.2900	1187.1525
28.3000	1307.6025
28.3100	1254.5125
28.3200	1265.3625
28.3300	1147.7650
28.3400	1119.9750
28.3500	1048.8475
28.3600	1141.1750
28.3700	1089.9225
28.3800	1150.8250
28.3900	1262.3150
28.4000	1209.5025
28.4100	1065.0950
28.4200	1194.5700
28.4300	1383.3325
28.4400	1368.4475
28.4500	1266.6675
28.4600	1249.8150
28.4700	1177.3600
28.4800	1454.1225
28.4900	1225.0800
28.5000	1074.8000
28.5100	1245.8875
28.5200	1222.8075
28.5300	1258.5200
28.5400	1200.0000
28.5500	1212.1000
28.5600	1297.9925
28.5700	1285.3300
28.5800	1282.1200
28.5900	1150.0000
28.6000	1165.7350
28.6100	1269.6350
28.6200	1156.9325
28.6300	1093.0175
28.6400	1155.1050
28.6500	1074.3350
28.6600	1133.3325
28.6700	1135.2300
28.6800	1155.6600
28.6900	1194.3700
28.7000	1153.7350
28.7100	1188.9050
28.7200	1229.6400
28.7300	1203.6750
28.7400	1233.3325
28.7500	1226.0650
28.7600	1163.0525
28.7700	1149.5075
28.7800	1290.4825
28.7900	1330.4500
28.8000	1168.4350
28.8100	1193.8775
28.8200	1271.1025
28.8300	1163.1925
28.8400	1133.3325
28.8500	1135.0500
28.8600	1138.0475
28.8700	1045.2150
28.8800	1143.2500
28.8900	1078.3000
28.9000	1016.6575
28.9100	883.2425
28.9200	1051.4575
28.9300	1213.3925
28.9400	1186.5875
28.9500	1208.5775
28.9600	1138.1575
28.9700	1183.3325
28.9800	1176.9825
28.9900	1130.8675
29.0000	1265.1000
29.0100	1250.0000
29.0200	1251.5475
29.0300	1266.6675
29.0400	1265.1400
29.0500	1237.8575
29.0600	1112.1425
29.0700	1057.6800
29.0800	977.0825
29.0900	1104.0250
29.1000	1303.4550
29.1100	1171.0400
29.1200	1226.8025
29.1300	1320.3900
29.1400	1189.0450
29.1500	1252.8375
29.1600	1272.0675
29.1700	1148.6025
29.1800	1130.5575
29.1900	1108.2700
29.2000	1200.0000
29.2100	1187.7750
29.2200	1054.0450
29.2300	1110.7075
29.2400	1238.6475
29.2500	1294.7250
29.2600	1239.8750
29.2700	1320.5625
29.2800	1358.9350
29.2900	1262.8300
29.3000	1223.0100
29.3100	1315.1025
29.3200	1487.5125
29.3300	1323.4250
29.3400	1196.3150
29.3500	1159.7500
29.3600	1291.7950
29.3700	1388.0125
29.3800	1232.1450
29.3900	1226.0975
29.4000	1355.8450
29.4100	1425.2200
29.4200	1310.9225
29.4300	1233.3325
29.4400	1233.3325
29.4500	1234.4525
29.4600	1233.3625
29.4700	1002.1975
29.4800	1048.5825
29.4900	1260.1925
29.5000	1169.8750
29.5100	1209.2525
29.5200	1103.1475
29.5300	1140.6450
29.5400	1012.3525
29.5500	1212.2325
29.5600	1396.9725
29.5700	1348.0000
29.5800	1317.6550
29.5900	1318.6400
29.6000	1093.0300
29.6100	1253.8375
29.6200	1311.9175
29.6300	1228.6350
29.6400	1155.5775
29.6500	1257.3575
29.6600	1392.4325
29.6700	1547.3000
29.6800	1500.0000
29.6900	1493.8400
29.7000	1385.0725
29.7100	1421.8275
29.7200	1520.0675
29.7300	1579.1325
29.7400	1521.5850
29.7500	1914.4700
29.7600	1549.1900
29.7700	1531.7325
29.7800	1507.1125
29.7900	1646.8775
29.8000	1586.4150
29.8100	1652.2825
29.8200	1706.0050
29.8300	1835.5550
29.8400	1875.2975
29.8500	1695.6775
29.8600	1605.6850
29.8700	1735.4350
29.8800	1784.7150
29.8900	1821.4325
29.9000	1928.6375
29.9100	1821.9525
29.9200	1940.8875
29.9300	1716.6675
29.9400	1717.9275
29.9500	1760.5575
29.9600	2021.7225
29.9700	1725.6850
29.9800	1972.5775
29.9900	2128.1025
30.0000	1982.1900
30.0100	1946.0700
30.0200	1834.9875
30.0300	1882.2500
30.0400	1852.1250
30.0500	1917.1875
30.0600	1934.8675
30.0700	1985.8425
30.0800	2059.2900
30.0900	1814.7400
30.1000	1752.3600
30.1100	1838.4150
30.1200	2020.2825
30.1300	2142.4875
30.1400	1873.5800
30.1500	2133.3325
30.1600	2137.4550
30.1700	2293.5650
30.1800	2040.7850
30.1900	2351.1475
30.2000	2395.9050
30.2100	2215.5800
30.2200	2176.5350
30.2300	2637.7850
30.2400	2847.3400
30.2500	2714.7300
30.2600	2624.1700
30.2700	3017.8775
30.2800	3082.1625
30.2900	3018.0800
30.3000	3100.8200
30.3100	3150.7900
30.3200	3204.5550
30.3300	3498.0550
30.3400	3374.1275
30.3500	3901.1150
30.3600	3985.4650
30.3700	4151.6275
30.3800	4280.8200
30.3900	4063.9150
30.4000	3818.0550
30.4100	3952.2900
30.4200	4188.8650
30.4300	4783.9075
30.4400	4848.3950
30.4500	4651.4875
30.4600	4850.3425
30.4700	4898.9600
30.4800	4735.0275
30.4900	5035.2675
30.5000	5418.3000
30.5100	5783.1400
30.5200	5733.7125
30.5300	5851.7750
30.5400	6517.4950
30.5500	6917.5000
30.5600	7484.4725
30.5700	8783.6650
30.5800	9966.2950
30.5900	11115.6200
30.6000	12564.4825
30.6100	15344.1500
30.6200	18258.8000
30.6300	21389.6825
30.6400	25998.7150
30.6500	31475.4150
30.6600	37784.5825
30.6700	44992.3800
30.6800	53446.9125
30.6900	64821.7325
30.7000	76942.8075
30.7100	91399.9850
30.7200	104734.6450
30.7300	115203.3700
30.7400	125993.7050
30.7500	135533.8300
30.7600	140644.1025
30.7700	143879.2650
30.7800	142863.0375
30.7900	135643.5700
30.8000	127492.8725
30.8100	116751.0525
30.8200	103954.0725
30.8300	92868.1925
30.8400	84055.3825
30.8500	73605.1325
30.8600	64651.7125
30.8700	56427.7625
30.8800	48019.6175
30.8900	38430.4800
30.9000	30437.5850
30.9100	22524.6575
30.9200	17159.2650
30.9300	13754.5250
30.9400	10895.2950
30.9500	9839.3750
30.9600	8155.6475
30.9700	7140.1900
30.9800	7002.8150
30.9900	6479.8475
31.0000	5881.8525
31.0100	5947.8425
31.0200	5966.2250
31.0300	5415.3525
31.0400	5124.5100
31.0500	5019.4950
31.0600	5032.8525
31.0700	4936.2800
31.0800	5288.9775
31.0900	4766.8600
31.1000	4443.2300
31.1100	4336.5175
31.1200	4075.3175
31.1300	3841.0400
31.1400	3962.1825
31.1500	3902.2825
31.1600	3578.2725
31.1700	3470.2075
31.1800	3145.3350
31.1900	2924.5950
31.2000	2643.8700
31.2100	2649.3700
31.2200	2569.8650
31.2300	2374.4600
31.2400	2142.5650
31.2500	2309.3050
31.2600	2284.6925
31.2700	2171.4900
31.2800	2038.9250
31.2900	1985.4600
31.3000	1919.5425
31.3100	1980.4175
31.3200	1871.8375
31.3300	2057.6850
31.3400	2066.6675
31.3500	1780.4950
31.3600	1846.1100
31.3700	1818.2425
31.3800	1880.1425
31.3900	1883.3325
31.4000	1708.9950
31.4100	1652.4825
31.4200	1744.9750
31.4300	1781.6400
31.4400	1720.0950
31.4500	1716.6675
31.4600	1827.1950
31.4700	1486.1750
31.4800	1608.5975
31.4900	1805.7875
31.5000	1769.4150
31.5100	1656.4850
31.5200	1571.3475
31.5300	1598.1075
31.5400	1458.6025
31.5500	1544.2050
31.5600	1550.0000
31.5700	1597.0425
31.5800	1772.3825
31.5900	1673.7025
31.6000	1572.7575
31.6100	1363.3250
31.6200	1537.5800
31.6300	1565.6225
31.6400	1519.8300
31.6500	1610.2800
31.6600	1538.7050
31.6700	1595.6625
31.6800	1615.5725
31.6900	1523.2900
31.7000	1516.6675
31.7100	1407.8650
31.7200	1601.9300
31.7300	1740.8525
31.7400	1703.4600
31.7500	1700.0000
31.7600	1638.0250
31.7700	1432.0450
31.7800	1416.6675
31.7900	1617.7000
31.8000	1571.5175
31.8100	1582.1100
31.8200	1444.4225
31.8300	1510.4575
31.8400	1408.7625
31.8500	1600.2650
31.8600	1493.5050
31.8700	1514.1050
31.8800	1455.1650
31.8900	1450.0000
31.9000	1142.8850
31.9100	1300.8175
31.9200	1439.3550
31.9300	1312.0650
31.9400	1238.7350
31.9500	1248.6400
31.9600	1127.6275
31.9700	1193.1000
31.9800	1368.0450
31.9900	1703.9425
32.0000	1748.5900
32.0100	1460.3000
32.0200	1265.7200
32.0300	1447.9600
32.0400	1329.7050
32.0500	1301.4575
32.0600	1178.4150
32.0700	1288.1725
32.0800	1315.1775
32.0900	1498.6900
32.1000	1365.0775
32.1100	1592.3850
32.1200	1616.6675
32.1300	1465.3725
32.1400	1374.4025
32.1500	1517.7625
32.1600	1488.0325
32.1700	1362.6125
32.1800	1350.0000
32.1900	1289.7175
32.2000	1192.9700
32.2100	1243.5375
32.2200	1204.8775
32.2300	1200.0000
32.2400	1200.0000
32.2500	1169.9775
32.2600	1301.6800
32.2700	1391.6250
32.2800	1250.1800
32.2900	1383.0550
32.3000	1340.1500
32.3100	1303.4275
32.3200	1135.6300
32.3300	1146.5325
32.3400	1239.5375
32.3500	1294.7400
32.3600	1195.6750
32.3700	1272.6950
32.3800	1447.0550
32.3900	1362.5475
32.4000	1186.4950
32.4100	1151.8125
32.4200	1046.0875
32.4300	1077.8375
32.4400	1098.1575
32.4500	1322.2275
32.4600	1483.2475
32.4700	1337.2500
32.4800	1183.5950
32.4900	1284.8750
32.5000	1373.8300
32.5100	1280.0400
32.5200	1207.6800
32.5300	1376.8400
32.5400	1120.1875
32.5500	1142.2025
32.5600	1238.2450
32.5700	1338.1850
32.5800	1085.6200
32.5900	1182.1025
32.6000	1361.3500
32.6100	1368.6750
32.6200	1278.7750
32.6300	1208.1125
32.6400	1170.7425
32.6500	1152.0475
32.6600	1120.7800
32.6700	1043.6675
32.6800	1062.5125
32.6900	1052.0875
32.7000	1122.8525
32.7100	1118.7725
32.7200	1305.8250
32.7300	1027.9725
32.7400	1201.3000
32.7500	1102.6400
32.7600	1213.9375
32.7700	1247.8350
32.7800	1163.0475
32.7900	1077.5875
32.8000	1182.4475
32.8100	1098.7600
32.8200	1112.2400
32.8300	1304.4275
32.8400	1217.8650
32.8500	1099.0350
32.8600	1169.8175
32.8700	981.6750
32.8800	1079.5500
32.8900	1229.4600
32.9000	1063.1275
32.9100	1033.3325
32.9200	1219.9525
32.9300	1206.9625
32.9400	1228.6725
32.9500	1204.6825
32.9600	1157.0525
32.9700	1121.3875
32.9800	1145.2600
32.9900	1078.5650
33.0000	1095.2200
33.0100	1000.1275
33.0200	1111.6525
33.0300	1119.0850
33.0400	1088.1900
33.0500	1182.9325
33.0600	1356.4050
33.0700	1241.2450
33.0800	1174.0700
33.0900	1265.9925
33.1000	1283.3325
33.1100	1269.1625
33.1200	1082.5850
33.1300	1106.6025
33.1400	1159.0900
33.1500	1180.7975
33.1600	1338.6675
33.1700	1267.8850
33.1800	1123.0850
33.1900	1283.1950
33.2000	1218.0900
33.2100	960.7675
33.2200	1085.4200
33.2300	1285.3025
33.2400	1246.4500
33.2500	1247.3675
33.2600	1221.9525
33.2700	1216.6675
33.2800	1160.6500
33.2900	1094.0200
33.3000	1237.1675
33.3100	1252.6925
33.3200	1180.1725
33.3300	1166.6675
33.3400	1180.6125
33.3500	1030.0325
33.3600	860.7325
33.3700	1181.2575
33.3800	1222.1850
33.3900	1077.6925
33.4000	1341.6425
33.4100	1372.2450
33.4200	1144.7725
33.4300	1072.2825
33.4400	1219.0050
33.4500	1291.5175
33.4600	1189.3650
33.4700	1083.7475
33.4800	1108.0975
33.4900	1268.4700
33.5000	1134.5125
33.5100	1072.4375
33.5200	1107.9800
33.5300	1006.5750
33.5400	969.5825
33.5500	1090.3450
33.5600	1144.1325
33.5700	1136.2775
33.5800	1133.3325
33.5900	1188.1475
33.6000	1186.3075
33.6100	1169.6500
33.6200	1057.2725
33.6300	1115.3200
33.6400	1187.9525
33.6500	1118.1275
33.6600	963.6450
33.6700	974.2100
33.6800	1187.5750
33.6900	1192.5150
33.7000	1074.5600
33.7100	1131.5225
33.7200	1136.4225
33.7300	1146.9000
33.7400	1109.3250
33.7500	1127.0975
33.7600	1052.1000
33.7700	1087.4500
33.7800	1140.5575
33.7900	1163.5100
33.8000	1112.6675
33.8100	1086.5100
33.8200	1029.4100
33.8300	1070.5500
33.8400	1096.7950
33.8500	1140.3550
33.8600	1190.3250
33.8700	1105.9725
33.8800	1083.3325
33.8900	1123.5725
33.9000	959.0900
33.9100	1037.2100
33.9200	1066.6675
33.9300	1106.7900
33.9400	1210.2200
33.9500	1073.0725
33.9600	966.6050
33.9700	1123.3650
33.9800	1073.3825
33.9900	1036.6825
34.0000	1153.0950
34.0100	1090.2525
34.0200	1252.6925
34.0300	1140.6650
34.0400	1126.5375
34.0500	1067.0400
34.0600	997.0050
34.0700	1049.5300
34.0800	1079.8975
34.0900	1109.7725
34.1000	1129.8775
34.1100	1027.7275
34.1200	1065.9550
34.1300	1083.3325
34.1400	1201.8800
34.1500	1180.6850
34.1600	1048.2925
34.1700	1148.0975
34.1800	1038.8675
34.1900	1157.4850
34.2000	1081.9725
34.2100	984.4775
34.2200	835.7175
34.2300	904.6825
34.2400	933.3325
34.2500	959.4650
34.2600	940.5550
34.2700	1076.8475
34.2800	1260.0750
34.2900	1000.3675
34.3000	890.6300
34.3100	870.3250
34.3200	918.6625
34.3300	907.3550
34.3400	925.9600
34.3500	933.3325
34.3600	946.2925
34.3700	911.1475
34.3800	1016.4700
34.3900	1011.2050
34.4000	1155.0625
34.4100	1187.0875
34.4200	1209.1375
34.4300	1023.2700
34.4400	979.5500
34.4500	931.8375
34.4600	916.6675
34.4700	916.6675
34.4800	942.3575
34.4900	937.1650
34.5000	1023.1150
34.5100	1114.0825
34.5200	1018.0725
34.5300	944.9425
34.5400	984.4850
34.5500	1089.4450
34.5600	1040.0550
34.5700	965.6300
34.5800	1077.4925
34.5900	1027.4875
34.6000	1089.1100
34.6100	1129.3875
34.6200	1158.7550
34.6300	1065.0550
34.6400	1160.2525
34.6500	1047.8125
34.6600	936.6375
34.6700	904.0025
34.6800	887.3475
34.6900	858.0450
34.7000	786.8275
34.7100	817.1675
34.7200	1022.5625
34.7300	1209.3925
34.7400	1111.4425
34.7500	1054.0800
34.7600	1024.8450
34.7700	878.4225
34.7800	996.5875
34.7900	962.1600
34.8000	883.1775
34.8100	879.1950
34.8200	795.6950
34.8300	879.2600
34.8400	1041.6750
34.8500	1108.3150
34.8600	1029.2950
34.8700	975.0550
34.8800	891.8900
34.8900	791.9475
34.9000	828.8850
34.9100	887.3025
34.9200	962.1225
34.9300	1008.1625
34.9400	1066.2875
34.9500	1095.7300
34.9600	1124.7725
34.9700	1083.8250
34.9800	992.4625
34.9900	880.1625
35.0000	973.4825
35.0100	1041.3450
35.0200	1037.6700
35.0300	1045.6525
35.0400	1136.1725
35.0500	1006.7575
35.0600	974.5825
35.0700	909.6425
35.0800	748.3400
35.0900	724.5250
35.1000	880.3700
35.1100	1080.2575
35.1200	1133.3325
35.1300	1072.2100
35.1400	952.2800
35.1500	867.8450
35.1600	874.3925
35.1700	871.1475
35.1800	976.2600
35.1900	1028.8350
35.2000	911.7525
35.2100	793.7750
35.2200	815.2225
35.2300	918.2400
35.2400	913.6400
35.2500	863.6675
35.2600	850.0000
35.2700	886.2750
35.2800	1020.8225
35.2900	994.2300
35.3000	978.7300
35.3100	850.7400
35.3200	884.3100
35.3300	1073.1200
35.3400	952.9525
35.3500	883.3325
35.3600	835.3075
35.3700	840.6600
35.3800	885.9625
35.3900	840.1100
35.4000	900.4475
35.4100	993.1300
35.4200	897.1700
35.4300	873.8800
35.4400	859.4725
35.4500	850.0000
35.4600	1004.8550
35.4700	983.3500
35.4800	890.5350
35.4900	854.7825
35.5000	873.7475
35.5100	835.8750
35.5200	958.9300
35.5300	945.5925
35.5400	881.1575
35.5500	783.8775
35.5600	773.6350
35.5700	889.6050
35.5800	956.9300
35.5900	1002.0350
35.6000	957.7675
35.6100	921.5625
35.6200	1022.5150
35.6300	984.4075
35.6400	961.7425
35.6500	908.0050
35.6600	965.3950
35.6700	941.4325
35.6800	881.5550
35.6900	878.3625
35.7000	859.9625
35.7100	814.9725
35.7200	811.6675
35.7300	770.0375
35.7400	796.5900
35.7500	898.1350
35.7600	840.3025
35.7700	916.1950
35.7800	1059.5475
35.7900	1065.1975
35.8000	1073.1825
35.8100	1013.8425
35.8200	844.4625
35.8300	702.3925
35.8400	678.2200
35.8500	717.9675
35.8600	894.8225
35.8700	966.6675
35.8800	851.5050
35.8900	880.5475
35.9000	1066.1325
35.9100	915.0600
35.9200	793.7100
35.9300	875.0875
35.9400	916.6675
35.9500	870.8650
35.9600	918.6475
35.9700	904.2725
35.9800	917.6000
35.9900	1036.0500
36.0000	1151.7550
36.0100	1080.7850
36.0200	942.2550
36.0300	1002.3800
36.0400	1106.8300
36.0500	1031.1225
36.0600	983.3325
36.0700	949.3200
36.0800	786.0600
36.0900	750.6250
36.1000	755.3575
36.1100	738.7000
36.1200	778.4975
36.1300	856.4100
36.1400	996.0600
36.1500	903.5775
36.1600	754.5550
36.1700	739.1550
36.1800	907.2925
36.1900	871.0750
36.2000	861.5325
36.2100	916.9550
36.2200	922.1350
36.2300	860.7250
36.2400	777.4375
36.2500	861.6975
36.2600	950.1475
36.2700	910.9100
36.2800	838.7650
36.2900	838.9325
36.3000	816.6300
36.3100	844.4550
36.3200	866.6675
36.3300	877.7625
36.3400	905.5050
36.3500	927.7425
36.3600	933.3325
36.3700	911.2175
36.3800	944.1950
36.3900	878.3525
36.4000	877.4550
36.4100	944.0825
36.4200	944.6425
36.4300	944.3350
36.4400	895.0350
36.4500	866.6675
36.4600	877.6400
36.4700	894.2975
36.4800	889.0450
36.4900	927.1200
36.5000	906.2525
36.5100	927.0450
36.5200	1015.5125
36.5300	940.9075
36.5400	872.4325
36.5500	801.3225
36.5600	831.9550
36.5700	931.9000
36.5800	890.6275
36.5900	839.1475
36.6000	909.2450
36.6100	906.6600
36.6200	959.1150
36.6300	956.7325
36.6400	944.1400
36.6500	928.4050
36.6600	949.0325
36.6700	999.0050
36.6800	1005.8975
36.6900	1032.2825
36.7000	1071.5025
36.7100	1040.3625
36.7200	834.2025
36.7300	722.6100
36.7400	727.3825
36.7500	861.8000
36.7600	890.5475
36.7700	813.2325
36.7800	1018.2450
36.7900	1085.9875
36.8000	996.7025
36.8100	870.8150
36.8200	837.9475
36.8300	935.0525
36.8400	1057.6900
36.8500	1068.1600
36.8600	1050.0000
36.8700	965.2425
36.8800	959.0075
36.8900	898.7225
36.9000	828.8650
36.9100	880.0125
36.9200	916.6675
36.9300	863.9700
36.9400	917.5750
36.9500	956.1450
36.9600	971.0225
36.9700	941.3225
36.9800	1021.6000
36.9900	1020.4275
37.0000	951.9075
37.0100	901.9350
37.0200	893.7900
37.0300	941.7900
37.0400	904.0375
37.0500	856.2375
37.0600	975.0375
37.0700	1070.8200
37.0800	1031.3250
37.0900	979.2150
37.1000	1018.5825
37.1100	1101.8700
37.1200	1081.5100
37.1300	873.9550
37.1400	766.6675
37.1500	870.0375
37.1600	923.0050
37.1700	916.6675
37.1800	885.7375
37.1900	825.4650
37.2000	789.7075
37.2100	803.8975
37.2200	765.3025
37.2300	815.4450
37.2400	999.9775
37.2500	1073.0875
37.2600	1046.1950
37.2700	961.7425
37.2800	977.9750
37.2900	1047.2925
37.3000	1036.0675
37.3100	935.1425
37.3200	893.5150
37.3300	940.6900
37.3400	976.8300
37.3500	932.5625
37.3600	920.2900
37.3700	984.0125
37.3800	885.0200
37.3900	870.8225
37.4000	1037.9675
37.4100	1157.0650
37.4200	1021.8900
37.4300	977.1525
37.4400	1016.6675
37.4500	1107.2325
37.4600	1226.9900
37.4700	1226.4875
37.4800	1220.0700
37.4900	1283.4650
37.5000	1226.5100
37.5100	1156.6575
37.5200	1239.9925
37.5300	1240.0600
37.5400	1269.8650
37.5500	1316.6675
37.5600	1227.0025
37.5700	1116.8975
37.5800	1302.1125
37.5900	1668.5800
37.6000	1637.9925
37.6100	1437.3275
37.6200	1383.3325
37.6300	1432.8275
37.6400	1526.0075
37.6500	1606.1900
37.6600	1554.3575
37.6700	1638.0800
37.6800	1792.4550
37.6900	1823.4875
37.7000	1816.6675
37.7100	1836.3200
37.7200	1997.2625
37.7300	2276.5500
37.7400	2566.5875
37.7500	2918.3000
37.7600	3474.5800
37.7700	4248.3800
37.7800	5068.6275
37.7900	5936.4725
37.8000	7164.4800
37.8100	8857.0925
37.8200	10090.4975
37.8300	12097.8550
37.8400	13911.6550
37.8500	16086.2600
37.8600	18031.0650
37.8700	19046.4625
37.8800	19784.2275
37.8900	19682.7825
37.9000	19320.1200
37.9100	19317.5200
37.9200	18576.4700
37.9300	16488.4775
37.9400	14729.2750
37.9500	13375.5350
37.9600	12262.9100
37.9700	11504.2350
37.9800	10893.3625
37.9900	10532.6375
38.0000	10041.1925
38.0100	9539.7800
38.0200	8380.9600
38.0300	6660.5175
38.0400	5275.8725
38.0500	4288.3250
38.0600	3346.0425
38.0700	2755.1425
38.0800	2538.4100
38.0900	2305.4475
38.1000	1936.9975
38.1100	1645.8800
38.1200	1642.3175
38.1300	1624.4200
38.1400	1642.1750
38.1500	1681.1400
38.1600	1610.1425
38.1700	1434.9050
38.1800	1286.3200
38.1900	1372.1175
38.2000	1382.2050
38.2100	1288.5400
38.2200	1304.1325
38.2300	1286.5450
38.2400	1287.3950
38.2500	1251.2875
38.2600	1311.9700
38.2700	1437.2875
38.2800	1345.5975
38.2900	1147.6550
38.3000	1020.1900
38.3100	1076.1950
38.3200	1168.5550
38.3300	1081.3825
38.3400	962.9625
38.3500	942.5825
38.3600	1005.4500
38.3700	1022.3025
38.3800	953.8825
38.3900	870.5925
38.4000	888.5675
38.4100	933.3325
38.4200	979.2725
38.4300	979.9500
38.4400	876.6400
38.4500	880.7950
38.4600	960.7900
38.4700	937.6175
38.4800	854.3275
38.4900	853.1675
38.5000	910.6825
38.5100	896.9025
38.5200	802.9750
38.5300	731.8200
38.5400	771.1525
38.5500	843.8825
38.5600	839.4775
38.5700	843.8300
38.5800	893.8025
38.5900	871.4850
38.6000	788.1950
38.6100	777.0575
38.6200	935.1500
38.6300	968.9900
38.6400	837.0550
38.6500	828.2500
38.6600	839.7425
38.6700	762.8725
38.6800	770.4075
38.6900	879.3025
38.7000	888.6375
38.7100	805.3500
38.7200	757.7450
38.7300	803.4750
38.7400	814.3850
38.7500	801.1225
38.7600	825.5525
38.7700	868.8425
38.7800	900.0000
38.7900	864.5625
38.8000	789.0800
38.8100	758.8425
38.8200	784.3325
38.8300	835.2950
38.8400	813.7750
38.8500	828.3100
38.8600	856.9400
38.8700	771.8125
38.8800	760.5650
38.8900	808.7700
38.9000	825.4300
38.9100	789.5675
38.9200	863.6800
38.9300	949.1950
38.9400	828.6100
38.9500	750.7700
38.9600	792.7950
38.9700	790.5650
38.9800	723.2075
38.9900	752.7975
39.0000	773.2950
39.0100	767.9950
39.0200	808.6575
39.0300	799.3700
39.0400	774.6950
39.0500	809.8175
39.0600	806.8925
39.0700	775.2800
39.0800	748.9175
39.0900	742.4525
39.1000	766.6675
39.1100	646.5825
39.1200	516.1950
39.1300	645.5200
39.1400	826.0900
39.1500	815.4125
39.1600	732.5325
39.1700	734.1000
39.1800	783.7000
39.1900	782.9850
39.2000	758.1675
39.2100	682.0800
39.2200	574.2600
39.2300	592.6400
39.2400	760.0275
39.2500	773.6625
39.2600	632.6550
39.2700	650.8325
39.2800	792.5250
39.2900	799.3075
39.3000	724.9225
39.3100	733.4725
39.3200	741.6050
39.3300	758.4875
39.3400	867.0975
39.3500	824.4850
39.3600	700.0000
39.3700	750.1025
39.3800	875.0750
39.3900	916.6675
39.4000	833.3875
39.4100	758.3875
39.4200	749.9475
39.4300	766.6675
39.4400	700.3525
39.4500	683.0175
39.4600	791.2375
39.4700	841.7375
39.4800	800.3150
39.4900	799.6500
39.5000	750.9625
39.5100	683.1225
39.5200	700.0000
39.5300	765.6900
39.5400	841.5350
39.5500	809.0300
39.5600	733.9250
39.5700	749.0600
39.5800	783.6650
39.5900	782.9850
39.6000	848.9025
39.6100	875.5750
39.6200	858.1325
39.6300	842.2925
39.6400	767.9700
39.6500	740.9875
39.6600	742.3700
39.6700	732.8475
39.6800	798.4875
39.6900	809.6375
39.7000	790.8600
39.7100	776.3900
39.7200	725.2875
39.7300	732.7425
39.7400	774.0875
39.7500	727.8125
39.7600	650.0000
39.7700	674.0100
39.7800	684.0100
39.7900	674.6525
39.8000	763.1125
39.8100	810.1550
39.8200	726.8625
39.8300	635.6200
39.8400	607.1625
39.8500	704.7475
39.8600	783.3325
39.8700	735.8275
39.8800	722.8775
39.8900	750.8650
39.9000	678.0900
39.9100	695.5000
39.9200	759.7100
39.9300	741.2000
39.9400	765.7150
39.9500	712.6925
39.9600	672.5350
39.9700	669.6750
39.9800	616.6675
39.9900	687.0000
40.0000	751.0550
40.0100	748.9275
40.0200	844.5575
40.0300	925.5525
40.0400	885.5800
40.0500	834.4725
40.0600	886.4600
40.0700	935.6825
40.0800	807.1475
40.0900	676.8125
40.1000	634.5575
40.1100	686.0750
40.1200	751.2600
40.1300	771.8075
40.1400	793.6075
40.1500	758.9875
40.1600	750.0000
40.1700	734.6775
40.1800	617.1850
40.1900	545.8625
40.2000	615.2700
40.2100	717.2300
40.2200	748.1000
40.2300	674.2775
40.2400	713.7400
40.2500	787.9650
40.2600	840.9175
40.2700	819.6975
40.2800	760.6300
40.2900	687.9800
40.3000	678.6350
40.3100	755.9600
40.3200	760.7325
40.3300	733.3325
40.3400	680.7175
40.3500	646.6975
40.3600	683.3325
40.3700	773.2250
40.3800	801.0250
40.3900	677.5775
40.4000	612.6725
40.4100	566.6675
40.4200	581.5650
40.4300	644.6425
40.4400	707.4325
40.4500	701.8200
40.4600	690.7475
40.4700	700.0000
40.4800	729.5925
40.4900	818.3950
40.5000	809.5225
40.5100	650.3125
40.5200	574.0300
40.5300	656.8925
40.5400	742.6525
40.5500	725.9950
40.5600	702.0050
40.5700	624.7550
40.5800	652.3925
40.5900	776.0275
40.6000	708.2900
40.6100	691.6425
40.6200	752.1075
40.6300	711.5175
40.6400	683.3325
40.6500	755.8825
40.6600	835.5075
40.6700	773.2375
40.6800	687.7475
40.6900	671.6650
40.7000	707.2125
40.7100	745.4850
40.7200	826.5100
40.7300	840.2075
40.7400	768.9750
40.7500	685.4600
40.7600	621.4875
40.7700	664.3075
40.7800	676.1875
40.7900	723.7675
40.8000	785.7425
40.8100	766.6675
40.8200	731.1050
40.8300	669.1250
40.8400	664.1925
40.8500	704.5950
40.8600	789.9675
40.8700	866.6675
40.8800	796.0425
40.8900	685.8925
40.9000	673.7125
40.9100	676.2950
40.9200	687.7550
40.9300	737.7300
40.9400	815.7550
40.9500	834.3050
40.9600	745.6800
40.9700	758.5925
40.9800	788.7500
40.9900	708.1750
41.0000	629.1125
41.0100	662.5875
41.0200	840.2975
41.0300	890.3525
41.0400	714.0400
41.0500	609.7450
41.0600	613.8250
41.0700	667.8550
41.0800	723.5625
41.0900	705.7825
41.1000	680.4250
41.1100	706.8725
41.1200	689.2150
41.1300	697.9850
41.1400	752.9725
41.1500	767.5250
41.1600	843.9875
41.1700	856.0450
41.1800	816.6675
41.1900	762.2250
41.2000	662.9425
41.2100	626.5450
41.2200	698.0325
41.2300	769.2600
41.2400	747.3475
41.2500	755.8650
41.2600	693.6575
41.2700	719.8550
41.2800	652.8825
41.2900	610.2250
41.3000	710.4325
41.3100	860.3575
41.3200	896.4150
41.3300	789.9075
41.3400	729.9550
41.3500	659.9600
41.3600	566.6725
41.3700	569.9225
41.3800	663.2975
41.3900	650.1300
41.4000	653.0600
41.4100	713.4600
41.4200	637.0200
41.4300	560.0600
41.4400	576.4000
41.4500	662.8075
41.4600	700.4175
41.4700	650.0000
41.4800	709.1025
41.4900	727.8525
41.5000	616.6675
41.5100	623.2100
41.5200	639.8675
41.5300	630.4225
41.5400	684.7350
41.5500	803.6475
41.5600	744.3225
41.5700	637.8775
41.5800	612.0650
41.5900	696.2875
41.6000	703.7275
41.6100	657.4900
41.6200	577.9500
41.6300	568.2250
41.6400	688.6200
41.6500	743.5725
41.6600	707.6525
41.6700	730.7875
41.6800	807.7175
41.6900	747.4800
41.7000	723.0550
41.7100	695.0550
41.7200	665.1900
41.7300	786.6650
41.7400	887.2900
41.7500	803.1950
41.7600	661.9650
41.7700	618.9925
41.7800	662.6450
41.7900	727.5375
41.8000	787.3875
41.8100	716.2775
41.8200	627.0425
41.8300	654.3625
41.8400	722.9400
41.8500	733.3325
41.8600	745.8500
41.8700	691.6650
41.8800	616.6050
41.8900	718.7025
41.9000	731.3225
41.9100	687.5650
41.9200	672.8775
41.9300	701.9400
41.9400	733.3325
41.9500	745.7050
41.9600	772.8450
41.9700	764.8250
41.9800	739.4950
41.9900	768.4600
42.0000	793.8550
42.0100	740.3700
42.0200	727.9625
42.0300	772.1175
42.0400	666.6675
42.0500	642.2450
42.0600	642.6825
42.0700	734.9350
42.0800	736.2600
42.0900	646.8925
42.1000	595.4650
42.1100	604.5525
42.1200	565.1850
42.1300	629.9975
42.1400	787.9325
42.1500	688.3350
42.1600	598.1400
42.1700	707.3725
42.1800	762.0025
42.1900	747.3725
42.2000	605.5200
42.2100	508.5100
42.2200	702.7250
42.2300	868.9725
42.2400	825.0100
42.2500	834.5975
42.2600	686.9775
42.2700	621.4725
42.2800	676.9850
42.2900	775.2700
42.3000	694.0950
42.3100	701.0275
42.3200	751.0025
42.3300	789.2150
42.3400	776.5025
42.3500	745.0650
42.3600	725.6575
42.3700	632.4475
42.3800	640.8975
42.3900	757.5100
42.4000	827.5075
42.4100	770.1150
42.4200	654.2800
42.4300	582.5900
42.4400	607.9500
42.4500	745.6025
42.4600	753.7650
42.4700	683.9800
42.4800	762.7750
42.4900	867.2675
42.5000	813.7850
42.5100	650.0000
42.5200	661.4650
42.5300	752.0225
42.5400	871.9000
42.5500	832.8750
42.5600	794.3000
42.5700	777.6400
42.5800	726.8725
42.5900	672.7075
42.6000	756.3500
42.6100	833.3325
42.6200	810.7200
42.6300	766.6675
42.6400	744.1150
42.6500	677.4800
42.6600	689.5525
42.6700	771.9300
42.6800	722.2725
42.6900	750.1275
42.7000	744.2000
42.7100	644.3350
42.7200	644.6000
42.7300	672.0950
42.7400	583.3550
42.7500	672.2050
42.7600	727.7550
42.7700	788.7525
42.7800	844.5550
42.7900	788.9600
42.8000	744.6175
42.8100	716.5150
42.8200	771.9875
42.8300	794.7100
42.8400	733.5550
42.8500	738.3150
42.8600	783.8725
42.8700	711.2075
42.8800	710.9000
42.8900	711.5625
42.9000	634.0575
42.9100	593.8025
42.9200	639.1625
42.9300	649.1350
42.9400	727.4750
42.9500	717.6250
42.9600	676.9400
42.9700	760.2350
42.9800	838.1575
42.9900	888.6975
43.0000	873.2125
43.0100	768.5200
43.0200	650.6400
43.0300	638.0025
43.0400	715.2925
43.0500	772.6950
43.0600	760.6225
43.0700	783.3325
43.0800	725.0825
43.0900	626.4400
43.1000	720.2950
43.1100	763.0925
43.1200	704.3925
43.1300	739.4850
43.1400	737.6650
43.1500	814.7825
43.1600	914.7375
43.1700	957.2025
43.1800	863.4700
43.1900	767.7000
43.2000	733.3325
43.2100	722.9425
43.2200	725.9400
43.2300	767.7925
43.2400	733.3325
43.2500	712.6725
43.2600	702.7675
43.2700	824.5300
43.2800	870.3900
43.2900	771.8000
43.3000	757.7000
43.3100	740.9525
43.3200	802.6650
43.3300	728.2300
43.3400	721.7625
43.3500	738.4225
43.3600	755.0800
43.3700	786.9600
43.3800	843.4650
43.3900	846.4350
43.4000	794.9500
43.4100	813.5900
43.4200	843.0525
43.4300	770.1100
43.4400	861.8475
43.4500	971.6800
43.4600	968.3200
43.4700	943.3275
43.4800	931.7400
43.4900	815.1250
43.5000	758.2050
43.5100	881.2375
43.5200	1008.5375
43.5300	964.8550
43.5400	990.1125
43.5500	902.4900
43.5600	799.2900
43.5700	921.5875
43.5800	894.0225
43.5900	844.1575
43.6000	910.8100
43.6100	860.6900
43.6200	1044.8075
43.6300	1218.7050
43.6400	1139.5150
43.6500	1052.7775
43.6600	1095.1475
43.6700	1160.8725
43.6800	1354.8375
43.6900	1323.1875
43.7000	1231.1375
43.7100	1232.9550
43.7200	1116.3400
43.7300	1086.1450
43.7400	1326.9200
43.7500	1499.4925
43.7600	1293.0075
43.7700	1447.7100
43.7800	1557.1400
43.7900	1504.7975
43.8000	1466.5750
43.8100	1583.1875
43.8200	1699.8025
43.8300	1835.3225
43.8400	1905.3225
43.8500	1848.9375
43.8600	2217.5950
43.8700	2540.1475
43.8800	2778.1800
43.8900	3467.4075
43.9000	4342.4325
43.9100	5418.6600
43.9200	6781.3300
43.9300	8222.1350
43.9400	9624.5375
43.9500	11383.3625
43.9600	13325.9075
43.9700	14683.4850
43.9800	16435.2875
43.9900	18243.3675
44.0000	19252.2700
44.0100	19244.0625
44.0200	19437.4225
44.0300	18284.0375
44.0400	16289.4950
44.0500	14366.3575
44.0600	12823.6825
44.0700	11942.3225
44.0800	11229.0125
44.0900	10724.1325
44.1000	10779.0250
44.1100	10439.0450
44.1200	10015.9075
44.1300	10152.7300
44.1400	9530.2275
44.1500	8454.3575
44.1600	7234.3325
44.1700	6135.5800
44.1800	4831.3250
44.1900	3474.6875
44.2000	2699.8850
44.2100	2449.9950
44.2200	2231.1675
44.2300	2018.1525
44.2400	1717.6900
44.2500	1744.5900
44.2600	1674.5175
44.2700	1658.8025
44.2800	1630.6125
44.2900	1474.5600
44.3000	1397.4550
44.3100	1250.0000
44.3200	1271.8200
44.3300	1298.4800
44.3400	1208.7000
44.3500	1228.9900
44.3600	1177.6525
44.3700	1083.9775
44.3800	1176.5375
44.3900	1230.9925
44.4000	1041.9450
44.4100	1053.7700
44.4200	1012.3750
44.4300	1021.4200
44.4400	1083.3325
44.4500	1079.0650
44.4600	1053.8800
44.4700	1003.9025
44.4800	945.4275
44.4900	891.8150
44.5000	908.2000
44.5100	862.2050
44.5200	774.6875
44.5300	712.6350
44.5400	754.2050
44.5500	800.2425
44.5600	870.6725
44.5700	808.4275
44.5800	870.8075
44.5900	812.4925
44.6000	754.1600
44.6100	783.2800
44.6200	825.0400
44.6300	795.8600
44.6400	779.2025
44.6500	758.4175
44.6600	749.8025
44.6700	816.4425
44.6800	850.2550
44.6900	787.7125
44.7000	729.5550
44.7100	719.7275
44.7200	887.4075
44.7300	895.9325
44.7400	838.6725
44.7500	720.2650
44.7600	807.6075
44.7700	875.2550
44.7800	854.0325
44.7900	838.4950
44.8000	729.9150
44.8100	702.7575
44.8200	832.6775
44.8300	895.3200
44.8400	909.4025
44.8500	837.3150
44.8600	818.2050
44.8700	728.5675
44.8800	778.5475
44.8900	824.5725
44.9000	826.3250
44.9100	757.8775
44.9200	795.1275
44.9300	813.7100
44.9400	750.0000
44.9500	738.2675
44.9600	692.1925
44.9700	709.5250
44.9800	877.2250
44.9900	927.8450
45.0000	772.8750
45.0100	679.4650
45.0200	724.5800
45.0300	858.8600
45.0400	662.8200
45.0500	669.1975
45.0600	737.1650
45.0700	727.0475
45.0800	661.4550
45.0900	715.2450
45.1000	762.8625
45.1100	784.1775
45.1200	900.0000
45.1300	847.0325
45.1400	640.2325
45.1500	576.3850
45.1600	662.9050
45.1700	661.2650
45.1800	733.7350
45.1900	835.0350
45.2000	764.6625
45.2100	685.0900
45.2200	674.2550
45.2300	801.8150
45.2400	761.1175
45.2500	825.8950
45.2600	894.5125
45.2700	783.5000
45.2800	674.0225
45.2900	733.0425
45.3000	828.0150
45.3100	731.7125
45.3200	681.2675
45.3300	729.6900
45.3400	731.2125
45.3500	776.0750
45.3600	742.7550
45.3700	723.8975
45.3800	753.6075
45.3900	763.0650
45.4000	732.0250
45.4100	698.9575
45.4200	798.7625
45.4300	733.3325
45.4400	726.2000
45.4500	724.9225
45.4600	823.7725
45.4700	842.9075
45.4800	770.6550
45.4900	607.0650
45.5000	658.0125
45.5100	750.0000
45.5200	739.4650
45.5300	685.9800
45.5400	622.8400
45.5500	597.2975
45.5600	667.4225
45.5700	757.6750
45.5800	829.1775
45.5900	739.6100
45.6000	720.7400
45.6100	782.7500
45.6200	706.3375
45.6300	690.7200
45.6400	766.1850
45.6500	727.3800
45.6600	799.1750
45.6700	710.9825
45.6800	849.3125
45.6900	709.8750
45.7000	690.1100
45.7100	689.6150
45.7200	586.7075
45.7300	623.5750
45.7400	713.3050
45.7500	700.0000
45.7600	713.3900
45.7700	746.6225
45.7800	660.0000
45.7900	659.9500
45.8000	756.7050
45.8100	772.9975
45.8200	940.4775
45.8300	670.3000
45.8400	569.7600
45.8500	613.8500
45.8600	502.7425
45.8700	676.1825
45.8800	770.2675
45.8900	687.3325
45.9000	589.4350
45.9100	680.0875
45.9200	676.3850
45.9300	716.6675
45.9400	710.2150
45.9500	673.6775
45.9600	620.4850
45.9700	573.0775
45.9800	587.2050
45.9900	539.7175
46.0000	569.8525
46.0100	602.4050
46.0200	689.6775
46.0300	697.6750
46.0400	645.0925
46.0500	744.6050
46.0600	665.7250
46.0700	730.1950
46.0800	697.8775
46.0900	619.7925
46.1000	633.3325
46.1100	645.7800
46.1200	687.5800
46.1300	639.5300
46.1400	694.4925
46.1500	791.9875
46.1600	661.7850
46.1700	585.0975
46.1800	685.0575
46.1900	760.5500
46.2000	724.1775
46.2100	710.7400
46.2200	812.0650
46.2300	716.6675
46.2400	710.6150
46.2500	689.3700
46.2600	722.6900
46.2700	734.9725
46.2800	672.6650
46.2900	697.0075
46.3000	692.2900
46.3100	727.3750
46.3200	720.8075
46.3300	807.7700
46.3400	772.5850
46.3500	791.1425
46.3600	750.0000
46.3700	752.9400
46.3800	757.8675
46.3900	710.8150
46.4000	695.0125
46.4100	752.9125
46.4200	746.3200
46.4300	652.9000
46.4400	686.9200
46.4500	771.7850
46.4600	708.0250
46.4700	686.7825
46.4800	783.3325
46.4900	791.9150
46.5000	813.3550
46.5100	696.7325
46.5200	588.6350
46.5300	564.5150
46.5400	722.3225
46.5500	772.5725
46.5600	857.9975
46.5700	738.9500
46.5800	755.4575
46.5900	700.0000
46.6000	688.8425
46.6100	619.4200
46.6200	558.3275
46.6300	605.5400
46.6400	655.4400
46.6500	772.1800
46.6600	772.4975
46.6700	658.0275
46.6800	755.9600
46.6900	633.0525
46.7000	711.2175
46.7100	675.1800
46.7200	636.0450
46.7300	647.2950
46.7400	625.2375
46.7500	586.0250
46.7600	624.1725
46.7700	752.6800
46.7800	758.6475
46.7900	722.0000
46.8000	739.3600
46.8100	672.7175
46.8200	603.4300
46.8300	541.2550
46.8400	596.5050
46.8500	661.4100
46.8600	633.3325
46.8700	633.3325
46.8800	633.3325
46.8900	630.7300
46.9000	624.4550
46.9100	664.0775
46.9200	650.0000
46.9300	652.5775
46.9400	674.3800
46.9500	708.9725
46.9600	669.2250
46.9700	688.4375
46.9800	709.0300
46.9900	671.7450
47.0000	700.0000
47.0100	684.8425
47.0200	602.5200
47.0300	616.6675
47.0400	631.7100
47.0500	726.6700
47.0600	778.3450
47.0700	750.0000
47.0800	750.0000
47.0900	740.0975
47.1000	695.6800
47.1100	751.8875
47.1200	661.7525
47.1300	630.8825
47.1400	636.2225
47.1500	737.8100
47.1600	678.8250
47.1700	745.1500
47.1800	706.9900
47.1900	647.5875
47.2000	652.5875
47.2100	757.0650
47.2200	685.6350
47.2300	597.6125
47.2400	609.5325
47.2500	766.6675
47.2600	742.9725
47.2700	602.3625
47.2800	633.1650
47.2900	730.9825
47.3000	714.3225
47.3100	692.9850
47.3200	652.3325
47.3300	675.9700
47.3400	735.6525
47.3500	736.1200
47.3600	645.3850
47.3700	616.6675
47.3800	637.3200
47.3900	768.9550
47.4000	765.0725
47.4100	650.0000
47.4200	659.0800
47.4300	712.1375
47.4400	681.0750
47.4500	671.1700
47.4600	695.5100
47.4700	686.8200
47.4800	803.2675
47.4900	721.1200
47.5000	756.6625
47.5100	800.0000
47.5200	775.7050
47.5300	621.0725
47.5400	663.1775
47.5500	782.8550
47.5600	980.3425
47.5700	836.9325
47.5800	739.1400
47.5900	660.1700
47.6000	638.2650
47.6100	768.2575
47.6200	660.2250
47.6300	620.9500
47.6400	652.1350
47.6500	656.0200
47.6600	591.8275
47.6700	652.1175
47.6800	662.4450
47.6900	648.0700
47.7000	752.1000
47.7100	754.1100
47.7200	689.6225
47.7300	841.6775
47.7400	779.1825
47.7500	756.2075
47.7600	806.1875
47.7700	841.7725
47.7800	779.2325
47.7900	743.8650
47.8000	712.2325
47.8100	802.0325
47.8200	808.5600
47.8300	743.9375
47.8400	695.9700
47.8500	674.7000
47.8600	747.3525
47.8700	844.0100
47.8800	803.9825
47.8900	821.4250
47.9000	725.4175
47.9100	672.5850
47.9200	722.5675
47.9300	778.4300
47.9400	856.8925
47.9500	777.4875
47.9600	723.6200
47.9700	669.3700
47.9800	793.4950
47.9900	608.9675
48.0000	557.6775
48.0100	626.2325
48.0200	707.6300
48.0300	781.8775
48.0400	879.1500
48.0500	716.6675
48.0600	711.0150
48.0700	674.1775
48.0800	731.4625
48.0900	709.2025
48.1000	661.1600
48.1100	748.1450
48.1200	727.7900
48.1300	674.1225
48.1400	603.6725
48.1500	647.9775
48.1600	772.1400
48.1700	796.6600
48.1800	642.3975
48.1900	704.0175
48.2000	600.0000
48.2100	603.5900
48.2200	642.2800
48.2300	736.2850
48.2400	882.2225
48.2500	738.6500
48.2600	767.4400
48.2700	649.1750
48.2800	786.8425
48.2900	800.9300
48.3000	659.6950
48.3100	612.1575
48.3200	728.7850
48.3300	816.0800
48.3400	666.6675
48.3500	678.6625
48.3600	779.9175
48.3700	758.5100
48.3800	836.7250
48.3900	861.5950
48.4000	801.5050
48.4100	675.0600
48.4200	731.5950
48.4300	575.0025
48.4400	671.6000
48.4500	866.6675
48.4600	860.0675
48.4700	791.7800
48.4800	710.1125
48.4900	658.1625
48.5000	736.5875
48.5100	758.5600
48.5200	693.0275
48.5300	788.1625
48.5400	834.9375
48.5500	848.4025
48.5600	834.9250
48.5700	838.8925
48.5800	736.4950
48.5900	744.6100
48.6000	556.8800
48.6100	786.4625
48.6200	805.7575
48.6300	706.2100
48.6400	763.5725
48.6500	730.2500
48.6600	706.1425
48.6700	774.3150
48.6800	843.9025
48.6900	780.2975
48.7000	753.0250
48.7100	780.3200
48.7200	739.4900
48.7300	639.3175
48.7400	711.9225
48.7500	824.4250
48.7600	730.3750
48.7700	702.9475
48.7800	742.1400
48.7900	828.9475
48.8000	784.7900
48.8100	804.3525
48.8200	861.5600
48.8300	977.5750
48.8400	919.5350
48.8500	945.7150
48.8600	887.1950
48.8700	742.9150
48.8800	685.0150
48.8900	888.9575
48.9000	935.9975
48.9100	802.8600
48.9200	1015.2775
48.9300	991.7000
48.9400	904.1350
48.9500	963.7225
48.9600	1119.4000
48.9700	1135.0275
48.9800	966.6675
48.9900	955.8650
49.0000	853.5025
49.0100	1072.6225
49.0200	959.3350
49.0300	1056.0425
49.0400	935.9775
49.0500	957.4500
49.0600	864.4250
49.0700	1051.6150
49.0800	1262.7650
49.0900	1220.5500
49.1000	1264.0875
49.1100	1230.7650
49.1200	1202.5575
49.1300	1230.7875
49.1400	1194.9300
49.1500	1149.7350
49.1600	1342.4625
49.1700	1257.5050
49.1800	1356.2250
49.1900	1413.4975
49.2000	1164.1975
49.2100	1152.9950
49.2200	1390.2125
49.2300	1264.2300
49.2400	1245.4575
49.2500	1407.2425
49.2600	1513.2175
49.2700	1679.7450
49.2800	1623.8075
49.2900	1507.1100
49.3000	1615.3350
49.3100	1813.1450
49.3200	1747.9650
49.3300	1526.7575
49.3400	1900.7025
49.3500	2126.4175
49.3600	2043.6575
49.3700	2216.4425
49.3800	2721.2100
49.3900	3505.1175
49.4000	4088.4825
49.4100	4942.9675
49.4200	6305.7900
49.4300	7498.5950
49.4400	10143.8325
49.4500	11646.8275
49.4600	14351.9500
49.4700	16629.7975
49.4800	18375.5600
49.4900	20261.9575
49.5000	21388.2125
49.5100	21183.6100
49.5200	20603.4525
49.5300	19041.8825
49.5400	16823.9700
49.5500	14839.2400
49.5600	13070.0200
49.5700	11327.3650
49.5800	10727.1600
49.5900	10621.0500
49.6000	10460.8250
49.6100	10966.3925
49.6200	12254.0300
49.6300	12286.5975
49.6400	11759.8400
49.6500	10820.0575
49.6600	9998.5075
49.6700	8586.2325
49.6800	7485.6775
49.6900	6128.0175
49.7000	5178.3175
49.7100	4235.3400
49.7200	3406.0875
49.7300	2665.2950
49.7400	2359.1150
49.7500	2230.5175
49.7600	2169.3300
49.7700	1919.4100
49.7800	1678.7175
49.7900	1601.8350
49.8000	1636.0700
49.8100	1684.2400
49.8200	1695.4900
49.8300	1606.8025
49.8400	1433.3325
49.8500	1418.2675
49.8600	1152.6425
49.8700	1201.7525
49.8800	1233.3325
49.8900	1235.0650
49.9000	1260.6450
49.9100	1154.2750
49.9200	1212.0900
49.9300	828.4900
49.9400	1055.8750
49.9500	1164.1650
49.9600	1108.3775
49.9700	959.8850
49.9800	1147.5450
49.9900	1086.9850
50.0000	834.9500
50.0100	871.4850
50.0200	961.0825
50.0300	844.4500
50.0400	739.6350
50.0500	871.3600
50.0600	955.0075
50.0700	717.4400
50.0800	730.2650
50.0900	670.4750
50.1000	753.7825
50.1100	834.0850
50.1200	847.0150
50.1300	792.2275
50.1400	979.6525
50.1500	897.8075
50.1600	845.6450
50.1700	749.2800
50.1800	730.4700
50.1900	673.7725
50.2000	839.6825
50.2100	978.4300
50.2200	868.0575
50.2300	893.0975
50.2400	730.5925
50.2500	673.4675
50.2600	834.0075
50.2700	845.3100
50.2800	733.3325
50.2900	733.3325
50.3000	738.5700
50.3100	862.7700
50.3200	762.8000
50.3300	664.7475
50.3400	617.3000
50.3500	636.4800
50.3600	713.5450
50.3700	633.3325
50.3800	639.4750
50.3900	796.3450
50.4000	702.4175
50.4100	768.4650
50.4200	812.5075
50.4300	702.9450
50.4400	783.3325
50.4500	781.5950
50.4600	736.2050
50.4700	816.6675
50.4800	814.9750
50.4900	770.0225
50.5000	865.0050
50.5100	817.2150
50.5200	831.1575
50.5300	768.2850
50.5400	813.9950
50.5500	737.0375
50.5600	849.4750
50.5700	831.7750
50.5800	781.2750
50.5900	716.6675
50.6000	719.1875
50.6100	802.9975
50.6200	898.0225
50.6300	828.4375
50.6400	667.1525
50.6500	686.2125
50.6600	780.9600
50.6700	698.5900
50.6800	650.9300
50.6900	684.2525
50.7000	720.3075
50.7100	846.4000
50.7200	717.5575
50.7300	749.1200
50.7400	717.5375
50.7500	749.1400
50.7600	717.9425
50.7700	763.7225
50.7800	652.9100
50.7900	764.2000
50.8000	669.9150
50.8100	799.6000
50.8200	784.9175
50.8300	846.8675
50.8400	717.4400
50.8500	751.1450
50.8600	800.7525
50.8700	832.5900
50.8800	801.8350
50.8900	881.8850
50.9000	815.5950
50.9100	766.3150
50.9200	752.4350
50.9300	865.2950
50.9400	798.3100
50.9500	718.6675
50.9600	813.0525
50.9700	634.9525
50.9800	718.2600
50.9900	797.8025
51.0000	682.7150
51.0100	652.1300
51.0200	767.2650
51.0300	800.2950
51.0400	816.3775
51.0500	796.2925
51.0600	584.4550
51.0700	652.4800
51.0800	801.0825
51.0900	866.4000
51.1000	848.4325
51.1100	749.4875
51.1200	717.1700
51.1300	751.2350
51.1400	831.6375
51.1500	717.1425
51.1600	749.0700
51.1700	685.3850
51.1800	833.5575
51.1900	848.9075
51.2000	766.2400
51.2100	733.5425
51.2200	750.6125
51.2300	797.8050
51.2400	618.2250
51.2500	749.8100
51.2600	733.3325
51.2700	733.8750
51.2800	783.3325
51.2900	784.0175
51.3000	847.8350
51.3100	634.7900
51.3200	783.0200
51.3300	751.3725
51.3400	899.5575
51.3500	848.4250
51.3600	667.0825
51.3700	716.1325
51.3800	650.3875
51.3900	699.1275
51.4000	585.0100
51.4100	816.6675
51.4200	816.8875
51.4300	850.0000
51.4400	848.9875
51.4500	682.8500
51.4600	600.6425
51.4700	716.7550
51.4800	733.3325
51.4900	733.5675
51.5000	783.4800
51.5100	816.6675
51.5200	816.7300
51.5300	832.7375
51.5400	666.6675
51.5500	667.1200
51.5600	816.6200
51.5700	800.0000
51.5800	799.7075
51.5900	666.6675
51.6000	666.6400
51.6100	650.1825
51.6200	783.1700
51.6300	633.4150
51.6400	733.3075
51.6500	683.3300
51.6600	666.6675
51.6700	699.9900
51.6800	633.3700
51.6900	550.0700
51.7000	566.6475
51.7100	649.8850
51.7200	616.7225
51.7300	699.8400
51.7400	899.5600
51.7500	750.3700
51.7600	766.6200
51.7700	600.5025
51.7800	716.2825
51.7900	700.0600
51.8000	749.8075
51.8100	683.6075
51.8200	749.7075
51.8300	683.6425
51.8400	633.5800
51.8500	782.5575
51.8600	733.6050
51.8700	749.9050
51.8800	683.7325
51.8900	716.4575
51.9000	733.2250
51.9100	749.8875
51.9200	816.1950
51.9300	733.9450
51.9400	749.8725
51.9500	750.0000
51.9600	733.4700
51.9700	700.2800
51.9800	733.0450
51.9900	716.8150
52.0000	716.6675
52.0100	683.6500
52.0200	650.3250
52.0300	683.0000
52.0400	716.3250
52.0500	815.6125
52.0600	734.2325
52.0700	683.8875
52.0800	683.3325
52.0900	650.3875
52.1000	798.2200
52.1100	734.1425
52.1200	502.8925
52.1300	582.2775
52.1400	731.3950
52.1500	815.5675
52.1600	701.5700
52.1700	765.7525
52.1800	733.8000
52.1900	716.9050
52.2000	733.0925
52.2100	749.7550
52.2200	782.8325
52.2300	701.2750
52.2400	683.5925
52.2500	716.1400
52.2600	618.2750
52.2700	665.8500
52.2800	732.2275
52.2900	667.7900
52.3000	617.5225
52.3100	796.8150
52.3200	767.2550
52.3300	652.0875
52.3400	584.5450
52.3500	616.0525
52.3600	665.7325
52.3700	601.2625
52.3800	714.4275
52.3900	733.0100
52.4000	667.9800
52.4100	748.3350
52.4200	798.9875
52.4300	848.9750
52.4400	866.3200
52.4500	801.4000
52.4600	751.0625
52.4700	782.6150
52.4800	864.8525
52.4900	866.6675
52.5000	720.0100
52.5100	830.7025
52.5200	849.6200
52.5300	866.2825
52.5400	817.8325
52.5500	719.0225
52.5600	716.6675
52.5700	716.6675
52.5800	781.7125
52.5900	718.3050
52.6000	684.1600
52.6100	845.8175
52.6200	979.9550
52.6300	853.4125
52.6400	736.3500
52.6500	911.8800
52.6600	900.4400
52.6700	786.4375
52.6800	686.0200
52.6900	877.9100
52.7000	850.9125
52.7100	752.7625
52.7200	944.4250
52.7300	1063.3850
52.7400	1018.0850
52.7500	919.5300
52.7600	949.0375
52.7700	998.5425
52.7800	967.6450
52.7900	934.3200
52.8000	998.0075
52.8100	919.1775
52.8200	884.3450
52.8300	883.3325
52.8400	867.1825
52.8500	963.5550
52.8600	740.6550
52.8700	765.6125
52.8800	879.6150
52.8900	1012.3850
52.9000	919.9025
52.9100	739.3125
52.9200	813.9275
52.9300	816.6675
52.9400	800.5550
52.9500	832.2125
52.9600	785.0250
52.9700	751.1375
52.9800	814.3775
52.9900	784.4875
53.0000	863.7625
53.0100	866.6675
53.0200	947.0550
53.0300	805.3350
53.0400	607.1650
53.0500	728.5250
53.0600	926.0725
53.0700	804.8750
53.0800	880.2675
53.0900	931.4825
53.1000	837.0625
53.1100	929.5800
53.1200	1045.5925
53.1300	969.8350
53.1400	886.5225
53.1500	915.3825
53.1600	884.6250
53.1700	915.3675
53.1800	772.5500
53.1900	894.7375
53.2000	883.9950
53.2100	915.3350
53.2200	868.6775
53.2300	802.6950
53.2400	1023.8425
53.2500	905.4550
53.2600	852.0575
53.2700	834.0225
53.2800	897.2250
53.2900	900.0000
53.3000	756.3175
53.3100	909.6075
53.3200	932.6225
53.3300	949.2850
53.3400	950.0000
53.3500	965.9450
53.3600	982.6075
53.3700	1031.1425
53.3800	842.1400
53.3900	737.7600
53.4000	988.1325
53.4100	952.2375
53.4200	838.5800
53.4300	833.3325
53.4400	960.6050
53.4500	887.1400
53.4600	962.8400
53.4700	998.4600
53.4800	888.7475
53.4900	708.5500
53.5000	874.7400
53.5100	994.5050
53.5200	888.8575
53.5300	883.3325
53.5400	788.1150
53.5500	767.4675
53.5600	845.9775
53.5700	865.8575
53.5800	819.1050
53.5900	848.3675
53.6000	834.1525
53.6100	880.8600
53.6200	978.3650
53.6300	951.6650
53.6400	997.4925
53.6500	952.5200
53.6600	965.8225
53.6700	1061.5825
53.6800	1082.4825
53.6900	1020.0875
53.7000	1032.4750
53.7100	1001.7250
53.7200	1000.0000
53.7300	921.0200
53.7400	837.7050
53.7500	864.9100
53.7600	914.0200
53.7700	1011.3500
53.7800	906.2275
53.7900	915.7725
53.8000	916.6675
53.8100	948.1975
53.8200	902.7150
53.8300	852.7275
53.8400	928.7700
53.8500	870.3325
53.8600	772.1875
53.8700	750.9250
53.8800	860.1725
53.8900	819.4625
53.9000	753.7425
53.9100	1017.3650
53.9200	1049.0575
53.9300	908.5225
53.9400	1010.0125
53.9500	1095.2275
53.9600	927.2075
53.9700	1010.8950
53.9800	1110.8725
53.9900	1069.5750
54.0000	1145.1350
54.0100	1228.4475
54.0200	1343.1350
54.0300	1255.9075
54.0400	1250.0000
54.0500	1297.0250
54.0600	1252.9875
54.0700	1202.9975
54.0800	1106.0200
54.0900	1397.5350
54.1000	1385.3550
54.1100	1367.6800
54.1200	1429.2600
54.1300	1542.8475
54.1400	1393.5875
54.1500	1445.8825
54.1600	1793.9425
54.1700	1769.7775
54.1800	1938.5575
54.1900	1825.0175
54.2000	1879.1425
54.2100	1867.7175
54.2200	1694.9400
54.2300	2042.3150
54.2400	2051.0625
54.2500	2112.4025
54.2600	2303.8300
54.2700	2176.3275
54.2800	2306.9725
54.2900	2441.3550
54.3000	2574.6575
54.3100	2536.5975
54.3200	2829.2575
54.3300	2569.7150
54.3400	2736.8125
54.3500	2921.2050
54.3600	2715.4875
54.3700	3073.3625
54.3800	3100.0000
54.3900	3084.4500
54.4000	3223.2475
54.4100	3295.5025
54.4200	3486.4650
54.4300	3934.9800
54.4400	4541.3300
54.4500	5018.1125
54.4600	5484.6775
54.4700	6447.9025
54.4800	7602.8575
54.4900	9793.1600
54.5000	12369.5350
54.5100	15356.6300
54.5200	19550.8500
54.5300	23988.2550
54.5400	29754.4175
54.5500	34953.6725
54.5600	40303.9175
54.5700	43439.6250
54.5800	46761.7275
54.5900	46969.0450
54.6000	45635.8925
54.6100	42717.6925
54.6200	39762.3400
54.6300	35050.1350
54.6400	29412.7100
54.6500	24409.4575
54.6600	21423.0175
54.6700	20861.3325
54.6800	21744.6350
54.6900	22310.8175
54.7000	22689.6525
54.7100	24321.9275
54.7200	24882.0875
54.7300	25456.6525
54.7400	25145.2325
54.7500	24237.6625
54.7600	22424.4725
54.7700	19832.4850
54.7800	17290.9150
54.7900	14218.8625
54.8000	10995.0250
54.8100	8178.1725
54.8200	6534.7750
54.8300	5616.2200
54.8400	4765.1250
54.8500	4484.5925
54.8600	4328.2225
54.8700	3501.5625
54.8800	3248.8225
54.8900	3002.7475
54.9000	2675.9550
54.9100	2819.0200
54.9200	2679.7125
54.9300	2666.6675
54.9400	2728.0875
54.9500	2595.1675
54.9600	2214.9750
54.9700	2075.9200
54.9800	2128.0325
54.9900	2348.0650
55.0000	1983.3025
55.0100	1995.9925
55.0200	1862.0500
55.0300	1941.9450
55.0400	1950.0000
55.0500	1628.3325
55.0600	1523.4300
55.0700	1486.0450
55.0800	1422.1050
55.0900	1508.4900
55.1000	1409.5625
55.1100	1461.1875
55.1200	1420.7850
55.1300	1294.3450
55.1400	1176.3250
55.1500	1258.3675
55.1600	1251.3875
55.1700	1173.6150
55.1800	998.6600
55.1900	937.5225
55.2000	857.0000
55.2100	1002.6325
55.2200	1123.4875
55.2300	1072.3075
55.2400	1264.9600
55.2500	1130.8350
55.2600	1040.4325
55.2700	957.1175
55.2800	873.8000
55.2900	866.6675
55.3000	942.8325
55.3100	965.2300
55.3200	966.6675
55.3300	936.2200
55.3400	857.2325
55.3500	789.1325
55.3600	859.4000
55.3700	973.1375
55.3800	1028.9525
55.3900	957.3150
55.4000	1010.8000
55.4100	879.8950
55.4200	942.6350
55.4300	980.3800
55.4400	937.7725
55.4500	887.7825
55.4600	868.1525
55.4700	988.0850
55.4800	1045.5225
55.4900	1050.0000
55.5000	928.6600
55.5100	1053.1450
55.5200	960.5400
55.5300	965.1575
55.5400	890.8950
55.5500	853.0300
55.5600	865.1475
55.5700	927.2450
55.5800	872.7675
55.5900	775.8375
55.6000	842.3425
55.6100	819.7375
55.6200	922.5650
55.6300	842.5825
55.6400	772.8450
55.6500	827.1425
55.6600	757.7550
55.6700	704.6625
55.6800	835.9825
55.6900	925.5300
55.7000	857.8200
55.7100	880.2000
55.7200	868.2375
55.7300	911.9475
55.7400	1127.9275
55.7500	968.9575
55.7600	738.8275
55.7700	731.7475
55.7800	763.4875
55.7900	781.7400
55.8000	783.3325
55.8100	768.2650
55.8200	887.1850
55.8300	915.0625
55.8400	766.0825
55.8500	780.1100
55.8600	828.4900
55.8700	893.5300
55.8800	884.9550
55.8900	883.3325
55.9000	853.2550
55.9100	819.9275
55.9200	726.4675
55.9300	806.8475
55.9400	831.6925
55.9500	698.1175
55.9600	668.3125
55.9700	741.7550
55.9800	840.0875
55.9900	850.0000
56.0000	774.9575
56.0100	751.6625
56.0200	915.0250
56.0300	843.3400
56.0400	878.3225
56.0500	718.4125
56.0600	714.9900
56.0700	836.5600
56.0800	715.1475
56.0900	714.9800
56.1000	746.6225
56.1100	720.0500
56.1200	716.6675
56.1300	716.6675
56.1400	716.6675
56.1500	716.6675
56.1600	791.4625
56.1700	829.9125
56.1800	833.3325
56.1900	848.2825
56.2000	879.8950
56.2100	868.3900
56.2200	791.9625
56.2300	843.0850
56.2400	820.1300
56.2500	742.0075
56.2600	673.6175
56.2700	711.4450
56.2800	791.2800
56.2900	814.9200
56.3000	667.5000
56.3100	709.6550
56.3200	731.5775
56.3300	703.5175
56.3400	685.0950
56.3500	772.7450
56.3600	664.1425
56.3700	605.3125
56.3800	644.6775
56.3900	530.8825
56.4000	516.6675
56.4100	665.5050
56.4200	787.5000
56.4300	740.4875
56.4400	867.2075
56.4500	808.9725
56.4600	710.7850
56.4700	714.8650
56.4800	731.5300
56.4900	703.6125
56.5000	640.5700
56.5100	752.1675
56.5200	766.6675
56.5300	692.4250
56.5400	787.2525
56.5500	755.4725
56.5600	705.4800
56.5700	774.1825
56.5800	753.6650
56.5900	720.3375
56.6000	850.1175
56.6100	748.0675
56.6200	807.4450
56.6300	831.4850
56.6400	744.4350
56.6500	777.7725
56.6600	872.1950
56.6700	824.1025
56.6800	742.6425
56.6900	659.3250
56.7000	620.4025
56.7100	675.8500
56.7200	757.3000
56.7300	722.2950
56.7400	790.6025
56.7500	859.1375
56.7600	940.5750
56.7700	905.6625
56.7800	737.4650
56.7900	628.0275
56.8000	675.7475
56.8100	816.2400
56.8200	700.4525
56.8300	668.5725
56.8400	681.4250
56.8500	639.0650
56.8600	736.6050
56.8700	794.2500
56.8800	667.2725
56.8900	708.9775
56.9000	819.8600
56.9100	685.9450
56.9200	681.4025
56.9300	639.1325
56.9400	706.9850
56.9500	701.9400
56.9600	758.9000
56.9700	796.1100
56.9800	800.0000
56.9900	770.5675
57.0000	678.3850
57.0100	725.5100
57.0200	718.6250
57.0300	834.3075
57.0400	747.0825
57.0500	674.5350
57.0600	651.9700
57.0700	605.9175
57.0800	702.8375
57.0900	790.1100
57.1000	829.3725
57.1100	671.8225
57.1200	723.4000
57.1300	836.0750
57.1400	717.9300
57.1500	861.3900
57.1600	736.6425
57.1700	746.0000
57.1800	720.6725
57.1900	702.0050
57.2000	670.6850
57.2100	710.6325
57.2200	687.3625
57.2300	580.7850
57.2400	683.8425
57.2500	831.8000
57.2600	732.8675
57.2700	760.5825
57.2800	752.0300
57.2900	545.1325
57.3000	545.9275
57.3100	608.5125
57.3200	645.9175
57.3300	737.7350
57.3400	691.5200
57.3500	668.7150
57.3600	681.2800
57.3700	697.9450
57.3800	714.6100
57.3900	672.8475
57.4000	695.8750
57.4100	758.4025
57.4200	708.2750
57.4300	787.5725
57.4400	756.2225
57.4500	691.6400
57.4600	595.8100
57.4700	583.3325
57.4800	612.4975
57.4900	543.7700
57.5000	562.4875
57.5100	726.9800
57.5200	720.8575
57.5300	833.2175
57.5400	820.8675
57.5500	816.6675
57.5600	685.6200
57.5700	593.8775
57.5800	670.6650
57.5900	814.3075
57.6000	702.3825
57.6100	726.9750
57.6200	806.0575
57.6300	831.2100
57.6400	717.0175
57.6500	714.5375
57.6600	658.5300
57.6700	606.4050
57.6800	658.1150
57.6900	623.0875
57.7000	674.7625
57.7100	755.9400
57.7200	723.1100
57.7300	586.0225
57.7400	682.7725
57.7500	700.0000
57.7600	758.0325
57.7700	679.6350
57.7800	565.1475
57.7900	637.0025
57.8000	678.9950
57.8100	726.8175
57.8200	689.8550
57.8300	668.8425
57.8400	681.1550
57.8500	712.3025
57.8600	861.4875
57.8700	854.3750
57.8800	821.0450
57.8900	816.6675
57.9000	816.6675
57.9100	657.5050
57.9200	604.4000
57.9300	715.7125
57.9400	747.7950
57.9500	735.5400
57.9600	776.7025
57.9700	812.2400
57.9800	758.8625
57.9900	663.3075
58.0000	664.4450
58.0100	695.5550
58.0200	671.1175
58.0300	623.3525
58.0400	703.2825
58.0500	644.5000
58.0600	633.3325
58.0700	691.0475
58.0800	671.1475
58.0900	695.5125
58.1000	627.8975
58.1100	587.8300
58.1200	511.2550
58.1300	528.8250
58.1400	648.6175
58.1500	709.8900
58.1600	702.2600
58.1700	613.5825
58.1800	643.2025
58.1900	678.7950
58.2000	568.1700
58.2100	521.2150
58.2200	588.6200
58.2300	628.7750
58.2400	604.5625
58.2500	657.5325
58.2600	609.1450
58.2700	600.0000
58.2800	614.3750
58.2900	631.0400
58.3000	618.9625
58.3100	602.2975
58.3200	657.4625
58.3300	795.9350
58.3400	701.7825
58.3500	697.6925
58.3600	843.5550
58.3700	708.7825
58.3800	496.7750
58.3900	638.8450
58.4000	724.0500
58.4100	647.2750
58.4200	489.9250
58.4300	667.4025
58.4400	700.0000
58.4500	628.3325
58.4600	602.3350
58.4700	542.6850
58.4800	504.6825
58.4900	657.5600
58.5000	754.9400
58.5100	666.4350
58.5200	650.0000
58.5300	592.7450
58.5400	669.2025
58.5500	640.4075
58.5600	604.7200
58.5700	714.4325
58.5800	804.8425
58.5900	687.9750
58.6000	509.4025
58.6100	597.6875
58.6200	702.4175
58.6300	773.8250
58.6400	740.4725
58.6500	619.0550
58.6600	628.5650
58.6700	704.7325
58.6800	745.2225
58.6900	621.5250
58.7000	514.3650
58.7100	728.3225
58.7200	752.4000
58.7300	593.0800
58.7400	580.9300
58.7500	611.8550
58.7600	545.3750
58.7700	618.8675
58.7800	690.3475
58.7900	528.9875
58.8000	599.7400
58.8100	716.3900
58.8200	576.6525
58.8300	606.9650
58.8400	630.9050
58.8500	661.8075
58.8600	623.9650
58.8700	716.2900
58.8800	761.7925
58.8900	695.5300
58.9000	612.2100
58.9100	571.5550
58.9200	609.3275
58.9300	744.6250
58.9400	567.6525
58.9500	533.3325
58.9600	604.3875
58.9700	602.4575
58.9800	671.0300
58.9900	555.5025
59.0000	646.9425
59.0100	766.0575
59.0200	598.7800
59.0300	580.8600
59.0400	696.8675
59.0500	674.0975
59.0600	595.7300
59.0700	654.2575
59.0800	652.4850
59.0900	593.2800
59.1000	696.7550
59.1100	730.8425
59.1200	634.1225
59.1300	616.6675
59.1400	659.1725
59.1500	723.3300
59.1600	747.4975
59.1700	735.8375
59.1800	719.1750
59.1900	518.4725
59.2000	582.4150
59.2100	628.3050
59.2200	689.9325
59.2300	629.2625
59.2400	630.8125
59.2500	647.4750
59.2600	607.5775
59.2700	628.2775
59.2800	562.6525
59.2900	592.4000
59.3000	656.5250
59.3100	652.5375
59.3200	650.0000
59.3300	565.2525
59.3400	550.0000
59.3500	606.4800
59.3600	546.0775
59.3700	547.4475
59.3800	677.0175
59.3900	671.7775
59.4000	610.2325
59.4100	543.5750
59.4200	519.2300
59.4300	699.9875
59.4400	691.0350
59.4500	612.8475
59.4600	684.5675
59.4700	770.4625
59.4800	783.3325
59.4900	670.6300
59.5000	678.1725
59.5100	669.2500
59.5200	582.1800
59.5300	454.0350
59.5400	461.4875
59.5500	635.5575
59.5600	596.3075
59.5700	583.3325
59.5800	541.1300
59.5900	533.3325
59.6000	617.7125
59.6100	675.5150
59.6200	697.3925
59.6300	657.8300
59.6400	607.8375
59.6500	614.0525
59.6600	630.7150
59.6700	619.2850
59.6800	644.7575
59.6900	692.1275
59.7000	629.7975
59.7100	518.3975
59.7200	429.8200
59.7300	472.8025
59.7400	511.3975
59.7500	558.7550
59.7600	678.8825
59.7700	700.0000
59.7800	559.7725
59.7900	533.3325
59.8000	533.3325
59.8100	533.3325
59.8200	645.4425
59.8300	596.6100
59.8400	597.3425
59.8500	600.0000
59.8600	600.0000
59.8700	600.0000
59.8800	628.0000
59.8900	591.3375
59.9000	569.3375
59.9100	622.6425
59.9200	647.3250
59.9300	580.0525
59.9400	552.6800
59.9500	619.9250
59.9600	605.3675
59.9700	627.9600
59.9800	647.3125
59.9900	663.9750
60.0000	652.6925
60.0100	663.9725
60.0200	652.6975
60.0300	636.0325
60.0400	689.1950
60.0500	616.2225
60.0600	516.2350
60.0700	527.9175
60.0800	407.7250
60.0900	494.9675
60.1000	572.4750
60.1100	639.1325
60.1200	691.8425
60.1300	700.0000
60.1400	700.0000
60.1500	672.1175
60.1600	652.7275
60.1700	622.1275
60.1800	588.7975
60.1900	611.1975
60.2000	602.7375
60.2100	544.2875
60.2200	519.4075
60.2300	711.5975
60.2400	694.3150
60.2500	599.8175
60.2600	541.5825
60.2700	533.3325
60.2800	602.8975
60.2900	644.4875
60.3000	538.7325
60.3100	544.4800
60.3200	605.6175
60.3300	658.3725
60.3400	624.9675
60.3500	588.8725
60.3600	513.8550
60.3700	555.5725
60.3800	566.6675
60.3900	483.3325
60.4000	536.1025
60.4100	591.6550
60.4200	558.3525
60.4300	661.0425
60.4400	697.2125
60.4500	602.8675
60.4600	597.2075
60.4700	669.3600
60.4800	586.2450
60.4900	691.4750
60.5000	675.0700
60.5100	514.1700
60.5200	552.6400
60.5300	608.2425
60.5400	658.2375
60.5500	625.1025
60.5600	533.5500
60.5700	599.7700
60.5800	699.7575
60.5900	536.6650
60.6000	596.9075
60.6100	699.7175
60.6200	675.1475
60.6300	555.9650
60.6400	574.8400
60.6500	638.6675
60.6600	691.4950
60.6700	658.5125
60.6800	622.3450
60.6900	616.6675
60.7000	547.5525
60.7100	671.5400
60.7200	644.7250
60.7300	633.3325
60.7400	509.0050
60.7500	510.9575
60.7600	599.5275
60.7700	644.2825
60.7800	677.6125
60.7900	752.3525
60.8000	711.4600
60.8100	644.8025
60.8200	605.7375
60.8300	627.5900
60.8400	550.5750
60.8500	547.1250
60.8600	660.3125
60.8700	752.2675
60.8800	711.5275
60.8900	658.6525
60.9000	636.2200
60.9100	660.8900
60.9200	625.3375
60.9300	616.6675
60.9400	520.2625
60.9500	582.6200
60.9600	544.9275
60.9700	615.9275
60.9800	564.5150
60.9900	550.0000
61.0000	522.4800
61.0100	626.7275
61.0200	594.9775
61.0300	514.5675
61.0400	541.2525
61.0500	591.2475
61.0600	572.5050
61.0700	566.6675
61.0800	566.6675
61.0900	484.2225
61.1000	549.0975
61.1100	497.9850
61.1200	524.5375
61.1300	615.7275
61.1400	578.4125
61.1500	662.7650
61.1600	697.0600
61.1700	672.5525
61.1800	598.0575
61.1900	569.6125
61.2000	607.8200
61.2100	753.8250
61.2200	728.4800
61.2300	593.2625
61.2400	539.2475
61.2500	533.3325
61.2600	560.7450
61.2700	594.0725
61.2800	695.9075
61.2900	689.2675
61.3000	601.1500
61.3100	446.3850
61.3200	498.8250
61.3300	598.8125
61.3400	575.6000
61.3500	525.6075
61.3600	598.7750
61.3700	589.3025
61.3800	610.6950
61.3900	589.3100
61.4000	514.9525
61.4100	500.0000
61.4200	582.0325
61.4300	654.6800
61.4400	666.6675
61.4500	707.6650
61.4600	580.0275
61.4700	495.3525
61.4800	578.9525
61.4900	600.0000
61.5000	545.3775
61.5100	669.8700
61.5200	686.3475
61.5300	587.7875
61.5400	539.3725
61.5500	642.4975
61.5600	571.1625
61.5700	672.7725
61.5800	686.3600
61.5900	615.1475
61.6000	668.1750
61.6100	601.5350
61.6200	569.7025
61.6300	648.4400
61.6400	653.0400
61.6500	663.6250
61.6600	653.0450
61.6700	622.7575
61.6800	575.8100
61.6900	621.1325
61.7000	660.5625
61.7100	789.1800
61.7200	598.9000
61.7300	577.2175
61.7400	596.9400
61.7500	518.3750
61.7600	500.0000
61.7700	554.4000
61.7800	580.2650
61.7900	651.3150
61.8000	680.2600
61.8100	628.9650
61.8200	575.8975
61.8300	566.6675
61.8400	512.3225
61.8500	486.4150
61.8600	537.6600
61.8700	563.5800
61.8800	580.2450
61.8900	556.1825
61.9000	522.8525
61.9100	625.2400
61.9200	555.0125
61.9300	628.3050
61.9400	717.8275
61.9500	665.5175
61.9600	663.5625
61.9700	612.4300
61.9800	518.6575
61.9900	527.1100
62.0000	519.7800
62.0100	503.1150
62.0200	527.0975
62.0300	533.3325
62.0400	519.7875
62.0500	448.9525
62.0600	541.6600
62.0700	566.6675
62.0800	647.8875
62.0900	707.2700
62.1000	608.4050
62.1100	596.8650
62.1200	640.5850
62.1300	758.2125
62.1400	810.3825
62.1500	749.0525
62.1600	584.6075
62.1700	522.9625
62.1800	597.7650
62.1900	697.7525
62.2000	689.6425
62.2100	737.3750
62.2200	628.4250
62.2300	721.5575
62.2400	614.9575
62.2500	488.8175
62.2600	493.6675
62.2700	580.9900
62.2800	667.4800
62.2900	683.3325
62.3000	642.8575
62.3100	633.3325
62.3200	619.8450
62.3300	549.2375
62.3400	519.8500
62.3500	516.6675
62.3600	570.5875
62.3700	623.7675
62.3800	619.8575
62.3900	589.7200
62.4000	650.6925
62.4100	626.2575
62.4200	535.8600
62.4300	624.3925
62.4400	676.9275
62.4500	535.2550
62.4600	446.1625
62.4700	487.1650
62.4800	513.4550
62.4900	570.4800
62.5000	677.4950
62.5100	713.4500
62.5200	555.2975
62.5300	489.7750
62.5400	496.7775
62.5500	620.9725
62.5600	636.5600
62.5700	552.7100
62.5800	721.4275
62.5900	592.0350
62.6000	603.7250
62.6100	737.5300
62.6200	806.9475
62.6300	615.2900
62.6400	580.0900
62.6500	663.8600
62.6600	750.4275
62.6700	659.3300
62.6800	539.4275
62.6900	597.1450
62.7000	589.8450
62.7100	556.5150
62.7200	576.8150
62.7300	623.5475
62.7400	740.5550
62.7500	726.4650
62.7600	609.4775
62.7700	596.7300
62.7800	600.0000
62.7900	626.7850
62.8000	606.5525
62.8100	586.6125
62.8200	636.8800
62.8300	690.1525
62.8400	579.5575
62.8500	590.1425
62.8600	653.5150
62.8700	573.0325
62.8800	509.8775
62.8900	553.4900
62.9000	606.7775
62.9100	683.5075
62.9200	740.1000
62.9300	669.8150
62.9400	676.7250
62.9500	736.7750
62.9600	736.6425
62.9700	639.8400
62.9800	736.8525
62.9900	659.8500
63.0000	513.1825
63.0100	670.2050
63.0200	636.5900
63.0300	630.0100
63.0400	633.3325
63.0500	660.0125
63.0600	680.0050
63.0700	696.6700
63.0800	606.6625
63.0900	623.3275
63.1000	673.3225
63.1100	670.0050
63.1200	706.6425
63.1300	650.0475
63.1400	686.6200
63.1500	833.1950
63.1600	893.3025
63.1700	886.6850
63.1800	723.5725
63.1900	616.7775
63.2000	560.0725
63.2100	616.5375
63.2200	659.9450
63.2300	786.3950
63.2400	670.3525
63.2500	699.8300
63.2600	716.6675
63.2700	703.3725
63.2800	673.4150
63.2900	693.2475
63.3000	646.8450
63.3100	500.4650
63.3200	559.6600
63.3300	702.8800
63.3400	786.4575
63.3500	800.0000
63.3600	760.1700
63.3700	657.0775
63.3800	766.0600
63.3900	879.6225
63.4000	687.7025
63.4100	620.0675
63.4200	775.8400
63.4300	816.6675
63.4400	829.9275
63.4500	846.5925
63.4600	982.5625
63.4700	870.8700
63.4800	806.8300
63.4900	760.2500
63.5000	855.9850
63.5100	896.5800
63.5200	847.0250
63.5300	820.0925
63.5400	896.1075
63.5500	943.1425
63.5600	1002.9425
63.5700	963.7325
63.5800	883.8400
63.5900	932.8150
63.6000	883.8625
63.6100	1065.0500
63.6200	1196.0075
63.6300	1044.7875
63.6400	933.9025
63.6500	1088.4925
63.6600	1133.3325
63.6700	1225.8275
63.6800	1223.5775
63.6900	1097.7850
63.7000	1093.0800
63.7100	1100.0000
63.7200	1100.0000
63.7300	1192.4075
63.7400	1269.4625
63.7500	1375.7100
63.7600	1558.3375
63.7700	1665.9625
63.7800	1947.1475
63.7900	2372.7600
63.8000	2690.8375
63.8100	2789.5525
63.8200	3221.8375
63.8300	4150.5150
63.8400	4933.3325
63.8500	6440.4850
63.8600	7432.3600
63.8700	8614.2525
63.8800	9805.2375
63.8900	10392.3675
63.9000	11681.4325
63.9100	12881.9775
63.9200	13221.9600
63.9300	12394.6200
63.9400	10890.3750
63.9500	9418.6200
63.9600	8182.7675
63.9700	6920.6725
63.9800	5466.5575
63.9900	4702.9925
64.0000	4727.9300
64.0100	4490.6600
64.0200	4416.6675
64.0300	5113.0325
64.0400	5405.0950
64.0500	5656.6250
64.0600	6504.6325
64.0700	6821.7125
64.0800	6823.7425
64.0900	6882.3000
64.1000	6952.4975
64.1100	6349.9150
64.1200	5947.1675
64.1300	5240.5400
64.1400	4384.6275
64.1500	3636.0950
64.1600	3050.6375
64.1700	2631.8050
64.1800	2366.4900
64.1900	1884.1775
64.2000	1701.1475
64.2100	1801.2475
64.2200	1702.3375
64.2300	1430.9150
64.2400	1353.5725
64.2500	1336.9075
64.2600	1254.7875
64.2700	1207.1550
64.2800	1226.1750
64.2900	1285.6725
64.3000	1169.1725
64.3100	1067.9300
64.3200	971.5300
64.3300	819.2350
64.3400	861.7800
64.3500	870.2600
64.3600	866.6675
64.3700	840.5300
64.3800	794.1350
64.3900	822.5250
64.4000	911.7050
64.4100	815.7975
64.4200	744.1600
64.4300	694.1675
64.4400	787.7600
64.4500	777.5125
64.4600	792.7650
64.4700	708.6700
64.4800	644.1975
64.4900	672.4625
64.5000	670.2925
64.5100	705.7825
64.5200	612.3750
64.5300	661.5400
64.5400	735.4625
64.5500	776.0600
64.5600	613.9700
64.5700	553.6400
64.5800	706.2850
64.5900	723.9575
64.6000	625.5300
64.6100	665.0875
64.6200	683.3325
64.6300	761.4125
64.6400	731.2900
64.6500	664.6300
64.6600	636.9925
64.6700	620.3275
64.6800	629.6700
64.6900	672.3350
64.7000	735.3275
64.7100	685.0200
64.7200	770.6200
64.7300	761.0250
64.7400	659.0725
64.7500	620.3450
64.7600	590.6950
64.7700	739.1325
64.7800	640.5400
64.7900	612.9800
64.8000	668.5750
64.8100	618.4600
64.8200	612.9725
64.8300	603.6950
64.8400	664.8425
64.8500	605.5350
64.8600	544.4400
64.8700	585.1800
64.8800	690.7175
64.8900	755.5400
64.9000	624.1575
64.9100	570.3800
64.9200	566.6675
64.9300	683.2075
64.9400	729.6125
64.9500	603.8850
64.9600	579.6100
64.9700	544.5125
64.9800	585.0875
64.9900	651.7450
65.0000	627.8650
65.0100	694.2575
65.0200	755.4550
65.0300	676.1750
65.0400	598.3000
65.0500	596.2575
65.0600	612.9200
65.0700	577.9100
65.0800	592.5000
65.0900	651.6575
65.1000	602.1050
65.1100	570.4225
65.1200	631.2050
65.1300	598.3775
65.1400	583.3325
65.1500	557.5300
65.1600	562.9000
65.1700	592.4600
65.1800	600.0000
65.1900	625.7850
65.2000	568.8800
65.2100	588.6650
65.2200	664.4300
65.2300	657.5650
65.2400	546.9475
65.2500	606.8225
65.2600	633.3325
65.2700	710.5850
65.2800	694.7150
65.2900	593.2375
65.3000	631.0100
65.3100	611.4000
65.3200	574.2725
65.3300	592.3900
65.3400	754.3175
65.3500	671.4250
65.3600	659.0450
65.3700	550.9875
65.3800	606.6225
65.3900	543.3925
65.4000	490.9725
65.4100	611.7775
65.4200	675.6850
65.4300	606.2950
65.4400	621.8475
65.4500	620.4975
65.4600	616.6675
65.4700	591.0050
65.4800	557.6750
65.4900	562.8275
65.5000	579.4900
65.5100	660.2650
65.5200	670.5125
65.5300	730.7550
65.5400	737.1850
65.5500	669.2675
65.5600	509.0800
65.5700	607.5625
65.5800	573.1600
65.5900	601.2175
65.6000	731.8850
65.6100	549.0700
65.6200	560.1175
65.6300	634.5150
65.6400	701.1725
65.6500	703.8750
65.6600	610.4800
65.6700	532.1875
65.6800	542.2350
65.6900	601.1275
65.7000	488.8700
65.7100	590.5500
65.7200	722.7600
65.7300	788.3175
65.7400	633.9825
65.7500	608.8700
65.7600	527.3050
65.7700	500.0000
65.7800	563.8075
65.7900	596.0925
65.8000	612.7575
65.8100	578.4025
65.8200	592.1725
65.8300	536.2500
65.8400	593.1550
65.8500	718.6325
65.8600	648.0525
65.8700	591.1850
65.8800	557.8550
65.8900	562.7375
65.9000	694.0100
65.9100	682.4050
65.9200	717.5850
65.9300	555.1500
65.9400	512.7250
65.9500	631.1725
65.9600	526.7400
65.9700	483.3325
65.9800	572.3450
65.9900	638.1400
66.0000	688.1350
66.0100	649.1650
66.0200	658.7475
66.0300	539.6225
66.0400	563.5100
66.0500	570.6325
66.0600	541.2725
66.0700	660.2850
66.0800	700.0000
66.0900	750.7625
66.1000	741.2900
66.1100	644.5325
66.1200	591.3000
66.1300	608.6950
66.1400	591.3075
66.1500	634.0400
66.1600	599.3025
66.1700	583.3325
66.1800	672.0200
66.1900	560.6600
66.2000	554.6625
66.2100	528.6775
66.2200	617.9500
66.2300	650.0000
66.2400	650.0000
66.2500	687.9600
66.2600	636.7450
66.2700	641.9650
66.2800	612.0600
66.2900	625.2875
66.3000	608.0500
66.3100	486.2475
66.3200	487.9100
66.3300	601.0775
66.3400	671.2300
66.3500	645.4450
66.3600	595.4500
66.3700	633.8350
66.3800	498.5275
66.3900	550.9625
66.4000	646.4225
66.4100	666.6675
66.4200	654.0525
66.4300	624.7775
66.4400	704.9275
66.4500	657.6975
66.4600	557.7100
66.4700	533.3325
66.4800	596.3275
66.4900	654.4575
66.5000	628.8850
66.5100	667.0350
66.5200	607.7975
66.5300	532.9850
66.5400	579.5900
66.5500	600.0000
66.5600	637.7400
66.5700	725.4650
66.5800	699.7000
66.5900	746.1975
66.6000	728.9550
66.6100	565.8525
66.6200	554.3625
66.6300	554.1025
66.6400	524.8775
66.6500	579.4575
66.6600	524.6650
66.6700	487.4475
66.6800	621.3950
66.6900	629.0200
66.7000	616.6675
66.7100	629.2100
66.7200	570.6275
66.7300	600.1550
66.7400	729.4950
66.7500	666.3950
66.7600	608.2700
66.7700	612.5300
66.7800	579.0875
66.7900	716.9575
66.8000	679.0150
66.8100	562.3650
66.8200	508.3000
66.8300	550.0575
66.8400	579.1775
66.8500	558.3150
66.8600	449.9425
66.8700	416.6675
66.8800	541.6900
66.8900	558.3350
66.9000	500.0100
66.9100	520.8175
66.9200	608.2875
66.9300	583.3725
66.9400	504.2300
66.9500	495.8175
66.9600	549.9300
66.9700	616.5875
66.9800	533.5125
66.9900	524.9500
67.0000	583.2225
67.0100	687.2900
67.0200	704.2000
67.0300	625.2100
67.0400	512.7625
67.0500	620.3950
67.0600	716.4975
67.0700	683.5125
67.0800	604.4025
67.0900	620.6825
67.1000	645.7800
67.1100	674.8900
67.1200	683.3325
67.1300	608.6925
67.1400	670.3975
67.1500	749.7400
67.1600	679.6400
67.1700	662.4300
67.1800	641.8125
67.1900	707.8825
67.2000	683.6425
67.2100	592.1475
67.2200	653.5875
67.2300	596.4300
67.2400	517.0175
67.2500	562.0500
67.2600	670.1850
67.2700	600.7625
67.2800	504.6550
67.2900	632.1300
67.3000	621.3475
67.3100	661.9725
67.3200	745.2925
67.3300	704.7200
67.3400	596.6250
67.3500	504.7450
67.3600	520.4775
67.3700	669.5050
67.3800	766.1725
67.3900	709.0900
67.4000	683.3325
67.4100	745.1775
67.4200	729.5675
67.4300	679.5750
67.4400	827.3625
67.4500	759.7475
67.4600	593.1075
67.4700	611.7675
67.4800	732.1400
67.4900	680.2300
67.5000	687.0375
67.5100	588.9125
67.5200	562.3400
67.5300	690.0450
67.5400	659.3225
67.5500	596.3350
67.5600	595.6625
67.5700	661.6375
67.5800	695.6575
67.5900	749.2875
67.6000	705.0700
67.6100	584.7975
67.6200	525.3725
67.6300	541.2900
67.6400	599.2375
67.6500	592.0550
67.6600	718.6750
67.6700	754.3650
67.6800	639.3125
67.6900	587.7050
67.7000	718.5600
67.7100	766.6675
67.7200	717.5150
67.7300	626.2875
67.7400	673.6950
67.7500	736.8400
67.7600	713.1675
67.7700	700.0000
67.7800	749.0875
67.7900	717.5900
67.8000	700.0000
67.8100	749.0550
67.8200	705.3600
67.8300	732.3675
67.8400	786.7675
67.8500	640.7075
67.8600	754.8425
67.8700	841.1625
67.8800	911.2275
67.8900	896.6050
67.9000	773.1750
67.9100	733.3325
67.9200	843.4450
67.9300	944.4925
67.9400	905.5200
67.9500	858.8800
67.9600	862.2225
67.9700	817.7825
67.9800	775.5625
67.9900	888.8225
68.0000	1018.8225
68.0100	988.9500
68.0200	942.2525
68.0300	1018.7650
68.0400	1074.4050
68.0500	997.9400
68.0600	942.2725
68.0700	1018.6900
68.0800	1147.5275
68.0900	1171.1450
68.1000	1337.2650
68.1100	1326.9025
68.1200	1202.5600
68.1300	1154.4900
68.1400	1320.4425
68.1500	1505.0500
68.1600	1476.9850
68.1700	1620.3275
68.1800	1768.4775
68.1900	2213.4650
68.2000	2719.2475
68.2100	3396.9825
68.2200	4231.9250
68.2300	5074.1475
68.2400	5870.9025
68.2500	6435.5125
68.2600	7380.1325
68.2700	8630.1350
68.2800	9262.4550
68.2900	9366.6675
68.3000	9524.3575
68.3100	9049.7325
68.3200	7989.1600
68.3300	6939.3650
68.3400	5721.3925
68.3500	4506.4250
68.3600	3686.6900
68.3700	3524.2200
68.3800	3363.8275
68.3900	3094.2175
68.4000	3101.3800
68.4100	3193.8300
68.4200	3543.2675
68.4300	3872.2575
68.4400	4119.2700
68.4500	4594.3200
68.4600	4931.2750
68.4700	4951.6725
68.4800	5150.7600
68.4900	5088.4150
68.5000	4936.7450
68.5100	4393.0275
68.5200	3801.7600
68.5300	3529.3500
68.5400	2964.6600
68.5500	2416.9475
68.5600	2114.5425
68.5700	1929.4650
68.5800	1883.3325
68.5900	1521.9000
68.6000	1323.1075
68.6100	1336.1250
68.6200	1325.9225
68.6300	1112.0500
68.6400	1021.3000
68.6500	1064.7875
68.6600	1035.2225
68.6700	932.4950
68.6800	815.8475
68.6900	807.3700
68.7000	900.7775
68.7100	861.2550
68.7200	773.2825
68.7300	846.0575
68.7400	835.3150
68.7500	804.6650
68.7600	883.9900
68.7700	832.6975
68.7800	752.0300
68.7900	769.3025
68.8000	855.2525
68.8100	823.4150
68.8200	835.9425
68.8300	850.0000
68.8400	814.0750
68.8500	740.1400
68.8600	716.6675
68.8700	716.6675
68.8800	716.6675
68.8900	668.8250
68.9000	626.0850
68.9100	712.3000
68.9200	714.1475
68.9300	700.0000
68.9400	759.7275
68.9500	616.1425
68.9600	657.4525
68.9700	711.9375
68.9800	645.0675
68.9900	688.2475
69.0000	728.5950
69.0100	757.1825
69.0200	707.0600
69.0300	683.3325
69.0400	683.3325
69.0500	683.3325
69.0600	623.7875
69.0700	742.8750
69.0800	704.7750
69.0900	642.8675
69.1000	680.9225
69.1100	664.3175
69.1200	602.4350
69.1300	476.3400
69.1400	480.8725
69.1500	571.2925
69.1600	695.0300
69.1700	804.5875
69.1800	880.8250
69.1900	793.1725
69.2000	809.3325
69.2100	738.4250
69.2200	593.2550
69.2300	561.8575
69.2400	542.9575
69.2500	485.9275
69.2600	525.9075
69.2700	597.3800
69.2800	569.2975
69.2900	526.3225
69.3000	658.6975
69.3100	669.3350
69.3200	590.8525
69.3300	566.6675
69.3400	602.1375
69.3500	616.6675
69.3600	604.8500
69.3700	623.6275
69.3800	562.4675
69.3900	627.7975
69.4000	690.2775
69.4100	664.5950
69.4200	744.3900
69.4300	700.7650
69.4400	631.2900
69.4500	557.7200
69.4600	592.2650
69.4700	710.9300
69.4800	691.1000
69.4900	690.2200
69.5000	723.5475
69.5100	580.3175
69.5200	551.9675
69.5300	578.4300
69.5400	571.5725
69.5500	519.6350
69.5600	652.8100
69.5700	681.4125
69.5800	654.9175
69.5900	567.7850
69.6000	592.0425
69.6100	663.6225
69.6200	706.8050
69.6300	611.0750
69.6400	613.5850
69.6500	703.6900
69.6600	756.7800
69.6700	661.1900
69.6800	593.2325
69.6900	595.0475
69.7000	576.5800
69.7100	613.4950
69.7200	621.6300
69.7300	593.2650
69.7400	641.8200
69.7500	631.5850
69.7600	546.5200
69.7700	633.5450
69.7800	741.7550
69.7900	603.1275
69.8000	603.4025
69.8100	574.9600
69.8200	550.0000
69.8300	585.0050
69.8400	693.3225
69.8500	733.3325
69.8600	675.0400
69.8700	603.3775
69.8800	688.2050
69.8900	779.9300
69.9000	718.4800
69.9100	590.1925
69.9200	689.6725
69.9300	761.6350
69.9400	650.3375
69.9500	681.4075
69.9600	705.0400
69.9700	630.2625
69.9800	588.3800
69.9900	594.9500
70.0000	600.0000
70.0100	541.9500
70.0200	597.9150
70.0300	691.3500
70.0400	728.2675
70.0500	640.5575
70.0600	565.2175
70.0700	573.1800
70.0800	606.5075
70.0900	744.0900
70.1000	718.9350
70.1100	648.6000
70.1200	679.6300
70.1300	700.0000
70.1400	711.5675
70.1500	762.9250
70.1600	748.6500
70.1700	710.2175
70.1800	653.7825
70.1900	656.4350
70.2000	608.9275
70.2100	664.1450
70.2200	711.5400
70.2300	797.4325
70.2400	741.0550
70.2500	630.8125
70.2600	634.5850
70.2700	650.0000
70.2800	673.0425
70.2900	614.2250
70.3000	640.9075
70.3100	666.6675
70.3200	597.6175
70.3300	635.6950
70.3400	724.1750
70.3500	589.0250
70.3600	528.1625
70.3700	648.2500
70.3800	722.9775
70.3900	652.9375
70.4000	651.1125
70.4100	666.6675
70.4200	609.2925
70.4300	548.9175
70.4400	544.8025
70.4500	595.8600
70.4600	651.0525
70.4700	689.5825
70.4800	573.9950
70.4900	642.6350
70.5000	596.9650
70.5100	572.8900
70.5200	640.5425
70.5300	563.7225
70.5400	550.9725
70.5500	612.3925
70.5600	667.6175
70.5700	683.3325
70.5800	706.1775
70.5900	670.9950
70.6000	604.3400
70.6100	617.5675
70.6200	758.8225
70.6300	702.6175
70.6400	627.1975
70.6500	742.0450
70.6600	811.3950
70.6700	759.7100
70.6800	699.1700
70.6900	671.9475
70.7000	678.0475
70.7100	728.8450
70.7200	738.6250
70.7300	642.3625
70.7400	600.0000
70.7500	554.5425
70.7600	521.9725
70.7700	607.5300
70.7800	627.2900
70.7900	593.9650
70.8000	628.7250
70.8100	604.6225
70.8200	560.6525
70.8300	640.7000
70.8400	728.6700
70.8500	738.6700
70.8600	688.0225
70.8700	700.6400
70.8800	614.7800
70.8900	623.2525
70.9000	717.8825
70.9100	636.8950
70.9200	594.6400
70.9300	690.4300
70.9400	642.9300
70.9500	656.4850
70.9600	694.6275
70.9700	688.7100
70.9800	705.9075
70.9900	637.6825
71.0000	678.9600
71.0100	739.2200
71.0200	716.1800
71.0300	621.1100
71.0400	560.8000
71.0500	595.0525
71.0600	616.6675
71.0700	684.2050
71.0800	784.1850
71.0900	715.4200
71.1000	677.9125
71.1100	570.9050
71.1200	539.1450
71.1300	651.1250
71.1400	711.2325
71.1500	649.2925
71.1600	571.7625
71.1700	561.2225
71.1800	600.3225
71.1900	650.3125
71.2000	677.8800
71.2100	638.4975
71.2200	639.0775
71.2300	593.9900
71.2400	667.4550
71.2500	694.2750
71.2600	705.7175
71.2700	593.5950
71.2800	566.8875
71.2900	583.3325
71.3000	616.8675
71.3100	622.1575
71.3200	583.1525
71.3300	555.4975
71.3400	628.1525
71.3500	688.9900
71.3600	677.6850
71.3700	677.8200
71.3800	683.3325
71.3900	683.3325
71.4000	616.4675
71.4100	594.4750
71.4200	588.8625
71.4300	605.6025
71.4400	638.9275
71.4500	627.7450
71.4600	705.6575
71.4700	738.8800
71.4800	555.4625
71.4900	600.0300
71.5000	699.9975
71.5100	672.2400
71.5200	638.8975
71.5300	666.6325
71.5400	661.1400
71.5500	683.2800
71.5600	644.5500
71.5700	572.3200
71.5800	583.2500
71.5900	600.0000
71.6000	677.5325
71.6100	716.6675
71.6200	672.3900
71.6300	650.0000
71.6400	672.1250
71.6500	683.3325
71.6600	683.3325
71.6700	771.7525
71.6800	860.8625
71.6900	828.1050
71.7000	800.0000
71.7100	855.1950
71.7200	795.0500
71.7300	672.7775
71.7400	721.5625
71.7500	733.5900
71.7600	683.6025
71.7700	600.5575
71.7800	566.6675
71.7900	599.7025
71.8000	605.6575
71.8100	666.0275
71.8200	711.0025
71.8300	771.6575
71.8400	712.0425
71.8500	655.6750
71.8600	737.9025
71.8700	717.4275
71.8800	650.3900
71.8900	633.3325
71.9000	655.2825
71.9100	787.3450
71.9200	817.0975
71.9300	778.0725
71.9400	810.5100
71.9500	658.0175
71.9600	654.2975
71.9700	776.6525
71.9800	707.1950
71.9900	704.7175
72.0000	744.2725
72.0100	771.8750
72.0200	794.2675
72.0300	767.2100
72.0400	793.7075
72.0500	762.0500
72.0600	711.4925
72.0700	656.3325
72.0800	786.1200
72.0900	953.9450
72.1000	989.0925
72.1100	1048.7525
72.1200	952.5375
72.1300	828.8525
72.1400	898.0375
72.1500	1124.2350
72.1600	1020.7150
72.1700	1047.2600
72.1800	1192.8225
72.1900	1233.3325
72.2000	1157.2250
72.2100	1127.5350
72.2200	1241.9925
72.2300	1234.8250
72.2400	1123.9850
72.2500	1029.0550
72.2600	1010.8525
72.2700	994.9675
72.2800	1091.7925
72.2900	1204.2125
72.3000	1255.0125
72.3100	1385.8600
72.3200	1395.8375
72.3300	1269.2050
72.3400	1335.7500
72.3500	1432.4675
72.3600	1569.0075
72.3700	1676.5950
72.3800	1656.7500
72.3900	1633.3325
72.4000	1946.6925
72.4100	2332.7100
72.4200	2665.9775
72.4300	3064.0150
72.4400	3562.0150
72.4500	4224.7075
72.4600	5119.6750
72.4700	6480.1850
72.4800	7971.0850
72.4900	9183.7350
72.5000	10999.3525
72.5100	12924.8200
72.5200	13969.8500
72.5300	14458.2900
72.5400	14115.8575
72.5500	13150.9000
72.5600	11874.2450
72.5700	10437.4450
72.5800	9035.5425
72.5900	7185.7550
72.6000	5724.5750
72.6100	4710.6775
72.6200	3883.7225
72.6300	3412.8200
72.6400	3300.0000
72.6500	3300.0000
72.6600	3439.3450
72.6700	4106.0200
72.6800	4776.1250
72.6900	5148.7175
72.7000	5635.4000
72.7100	6470.7325
72.7200	7191.1300
72.7300	7624.6100
72.7400	7974.5400
72.7500	7554.8575
72.7600	7036.2850
72.7700	6168.8950
72.7800	5429.6250
72.7900	5047.1575
72.8000	4228.9450
72.8100	3331.8775
72.8200	2826.0150
72.8300	2422.7700
72.8400	2170.7325
72.8500	1935.5125
72.8600	1854.6400
72.8700	1674.9750
72.8800	1619.8975
72.8900	1607.4275
72.9000	1434.3775
72.9100	1233.0000
72.9200	1166.6675
72.9300	1177.2975
72.9400	1151.4525
72.9500	1154.5800
72.9600	1071.0850
72.9700	995.4325
72.9800	1057.6275
72.9900	1015.1175
73.0000	1009.0950
73.0100	1065.1450
73.0200	913.7250
73.0300	806.0700
73.0400	874.1575
73.0500	948.4400
73.0600	924.3175
73.0700	804.7425
73.0800	750.0000
73.0900	771.1550
73.1000	804.4825
73.1100	848.3800
73.1200	856.0975
73.1300	786.6100
73.1400	728.8775
73.1500	716.6675
73.1600	801.1075
73.1700	776.1375
73.1800	680.5900
73.1900	755.4550
73.2000	732.3275
73.2100	651.7150
73.2200	643.8700
73.2300	723.7275
73.2400	756.1375
73.2500	802.6300
73.2600	780.7175
73.2700	781.5600
73.2800	747.4175
73.2900	695.6400
73.3000	641.2925
73.3100	637.6800
73.3200	681.5125
73.3300	731.5025
73.3400	697.5125
73.3500	708.6450
73.3600	680.8775
73.3700	670.9750
73.3800	725.2725
73.3900	718.5550
73.4000	658.0875
73.4100	675.2350
73.4200	647.6400
73.4300	606.1975
73.4400	516.2750
73.4500	571.2925
73.4600	581.0350
73.4700	591.8250
73.4800	679.3850
73.4900	643.5175
73.5000	620.8925
73.5100	664.6650
73.5200	693.7750
73.5300	637.3750
73.5400	620.8675
73.5500	602.0400
73.5600	645.9025
73.5700	599.9350
73.5800	550.0000
73.5900	633.3500
73.6000	672.9175
73.6100	677.0800
73.6200	631.2875
73.6300	641.6250
73.6400	645.8600
73.6500	664.5325
73.6600	683.3325
73.6700	724.9075
73.6800	718.8275
73.6900	668.8375
73.7000	681.1525
73.7100	668.8550
73.7200	650.0000
73.7300	712.2525
73.7400	791.4875
73.7500	744.0825
73.7600	700.0000
73.7700	700.0000
73.7800	658.5600
73.7900	695.4750
73.8000	733.3325
73.8100	640.1775
73.8200	614.3750
73.8300	685.0550
73.8400	706.3250
73.8500	679.3225
73.8600	656.3325
73.8700	670.6650
73.8800	621.3575
73.8900	573.0075
73.9000	618.2825
73.9100	680.9600
73.9200	617.4625
73.9300	556.3525
73.9400	622.1775
73.9500	666.6675
73.9600	718.1925
73.9700	667.5825
73.9800	647.5650
73.9900	656.3700
74.0000	680.8800
74.0100	648.5500
74.0200	524.0825
74.0300	518.0875
74.0400	673.3725
74.0500	657.4975
74.0600	579.4500
74.0700	648.8450
74.0800	679.4625
74.0900	717.9975
74.1000	678.1575
74.1100	643.5925
74.1200	701.2875
74.1300	702.5700
74.1400	580.8200
74.1500	537.1625
74.1600	580.7375
74.1700	610.2425
74.1800	637.1450
74.1900	578.3425
74.2000	615.2025
74.2100	697.3600
74.2200	706.4400
74.2300	659.1000
74.2400	602.6675
74.2500	583.3325
74.2600	573.1175
74.2700	607.5200
74.2800	653.7550
74.2900	666.6675
74.3000	656.4625
74.3100	588.7900
74.3200	570.3975
74.3300	573.1375
74.3400	576.8600
74.3500	583.3325
74.3600	542.5850
74.3700	526.8500
74.3800	512.9700
74.3900	561.0725
74.4000	661.0550
74.4100	669.4800
74.4200	609.3200
74.4300	664.6725
74.4400	747.1600
74.4500	654.8900
74.4600	542.6975
74.4700	526.8225
74.4800	533.3325
74.4900	502.8825
74.5000	554.3650
74.5100	630.4325
74.5200	670.2825
74.5300	642.7775
74.5400	606.5300
74.5500	579.7325
74.5600	566.6675
74.5700	586.9225
74.5800	640.5000
74.5900	626.1775
74.6000	589.8800
74.6100	603.5675
74.6200	596.4400
74.6300	563.1125
74.6400	610.6500
74.6500	670.2100
74.6600	592.4075
74.6700	482.8325
74.6800	470.1950
74.6900	543.9000
74.7000	633.7925
74.7100	626.3100
74.7200	579.8275
74.7300	607.0000
74.7400	593.0100
74.7500	566.6675
74.7600	586.8175
74.7700	680.5800
74.7800	693.0525
74.7900	565.9950
74.8000	500.0000
74.8100	530.1850
74.8200	630.4725
74.8300	673.2775
74.8400	646.5600
74.8500	643.3850
74.8600	730.3875
74.8700	682.8750
74.8800	646.7950
74.8900	656.6275
74.9000	660.0375
74.9100	656.6325
74.9200	660.0325
74.9300	546.3100
74.9400	556.9100
74.9500	666.7900
74.9600	720.0425
74.9700	763.3900
74.9800	663.1350
74.9900	533.2625
75.0000	520.0225
75.0100	593.3850
75.0200	733.3950
75.0300	769.9900
75.0400	629.9875
75.0500	550.0000
75.0600	550.0000
75.0700	589.9725
75.0800	596.6850
75.0900	573.3450
75.1000	546.6950
75.1100	583.2475
75.1200	676.5500
75.1300	676.7550
75.1400	580.1725
75.1500	603.1425
75.1600	640.0300
75.1700	613.3975
75.1800	520.2800
75.1900	516.4800
75.2000	579.8800
75.2100	649.7875
75.2200	633.5575
75.2300	619.9050
75.2400	673.1325
75.2500	690.0525
75.2600	653.4975
75.2700	603.5050
75.2800	613.1525
75.2900	663.1450
75.3000	633.6575
75.3100	550.3375
75.3200	566.3175
75.3300	580.1450
75.3400	526.9650
75.3500	539.6900
75.3600	517.0650
75.3700	542.8400
75.3800	543.6725
75.3900	576.1450
75.4000	636.4875
75.4100	709.4500
75.4200	759.9050
75.4300	707.2475
75.4400	607.2600
75.4500	497.3775
75.4600	440.1050
75.4700	373.9700
75.4800	442.1375
75.4900	526.5550
75.5000	553.1075
75.5100	527.1300
75.5200	519.7650
75.5300	523.4550
75.5400	605.5625
75.5500	597.5425
75.5600	569.7450
75.5700	514.2425
75.5800	525.8725
75.5900	615.9950
75.6000	610.5475
75.6100	603.0550
75.6200	626.5250
75.6300	613.6200
75.6400	570.4375
75.6500	579.5550
75.6600	609.8500
75.6700	557.5850
75.6800	556.0450
75.6900	622.7025
75.7000	620.4800
75.7100	629.5150
75.7200	679.5075
75.7300	581.9975
75.7400	500.0000
75.7500	539.3150
75.7600	497.8800
75.7700	479.4725
75.7800	509.8225
75.7900	516.6675
75.8000	614.8450
75.8100	712.7800
75.8200	645.0125
75.8300	583.3325
75.8400	573.5250
75.8500	625.5075
75.8600	666.6675
75.8700	607.8525
75.8800	605.8675
75.8900	652.9300
75.9000	637.2775
75.9100	577.4900
75.9200	579.3750
75.9300	570.6300
75.9400	647.8750
75.9500	657.9550
75.9600	567.7500
75.9700	582.2400
75.9800	734.0150
75.9900	670.0125
76.0000	586.2150
76.0100	590.2275
76.0200	602.8750
76.0300	577.5925
76.0400	540.2325
76.0500	494.2750
76.0600	515.4775
76.0700	637.8425
76.0800	709.7575
76.0900	745.9350
76.1000	678.8800
76.1100	567.9075
76.1200	611.3325
76.1300	647.1700
76.1400	623.5875
76.1500	577.6900
76.1600	559.7425
76.1700	605.6275
76.1800	652.8100
76.1900	598.5150
76.2000	588.9350
76.2100	606.9350
76.2200	580.5400
76.2300	654.2200
76.2400	784.7500
76.2500	852.7825
76.2600	808.3325
76.2700	766.6675
76.2800	766.6675
76.2900	669.5025
76.3000	677.7175
76.3100	772.1850
76.3200	790.2900
76.3300	705.6625
76.3400	679.1200
76.3500	641.7700
76.3600	638.8125
76.3700	773.3800
76.3800	685.1100
76.3900	576.3650
76.4000	651.2025
76.4100	806.6325
76.4200	863.9500
76.4300	743.4075
76.4400	686.0425
76.4500	758.1200
76.4600	838.7375
76.4700	905.3975
76.4800	894.6100
76.4900	827.9500
76.5000	867.7425
76.5100	984.3950
76.5200	984.9650
76.5300	882.2950
76.5400	978.3875
76.5500	1112.3400
76.5600	1191.3350
76.5700	1271.9925
76.5800	1184.0400
76.5900	1341.5375
76.6000	1700.2025
76.6100	1939.5725
76.6200	2316.0125
76.6300	2948.4800
76.6400	3665.0725
76.6500	3908.7600
76.6600	3982.4600
76.6700	4346.4500
76.6800	4627.1675
76.6900	4500.0900
76.7000	4202.7425
76.7100	4073.6925
76.7200	3700.3725
76.7300	3115.2925
76.7400	2565.3450
76.7500	2208.0875
76.7600	1952.9125
76.7700	1669.6050
76.7800	1492.2225
76.7900	1584.7875
76.8000	1692.9600
76.8100	1680.7500
76.8200	1599.3075
76.8300	1578.8625
76.8400	1676.9575
76.8500	1771.8050
76.8600	2021.1775
76.8700	2298.7125
76.8800	2441.0125
76.8900	2656.3425
76.9000	2812.1625
76.9100	2833.3325
76.9200	2698.8350
76.9300	2580.7900
76.9400	2364.9875
76.9500	2091.8375
76.9600	1817.5875
76.9700	1520.1475
76.9800	1313.6225
76.9900	1211.6150
77.0000	1212.1175
77.0100	1156.5900
77.0200	1090.4075
77.0300	997.0225
77.0400	875.8025
77.0500	823.7475
77.0600	778.3250
77.0700	730.8325
77.0800	831.6575
77.0900	878.3425
77.1000	821.2625
77.1100	752.1100
77.1200	726.2425
77.1300	704.6075
77.1400	712.0550
77.1500	771.6225
77.1600	733.0050
77.1700	654.6250
77.1800	642.9000
77.1900	640.4325
77.2000	614.2025
77.2100	590.4375
77.2200	621.5825
77.2300	745.6075
77.2400	749.7525
77.2500	623.5375
77.2600	576.2225
77.2700	640.6625
77.2800	606.9050
77.2900	626.4175
77.3000	711.9850
77.3100	637.8400
77.3200	528.4750
77.3300	519.0925
77.3400	619.2400
77.3500	635.6125
77.3600	580.9150
77.3700	642.9950
77.3800	680.9200
77.3900	666.6675
77.4000	647.5925
77.4100	576.1175
77.4200	542.8675
77.4300	540.4675
77.4400	590.5250
77.4500	585.6800
77.4600	492.8250
77.4700	516.6950
77.4800	528.5600
77.4900	585.7250
77.5000	650.0000
77.5100	630.9550
77.5200	607.1450
77.5300	561.9200
77.5400	571.4075
77.5500	619.0350
77.5600	614.3025
77.5700	619.0300
77.5800	709.4400
77.5900	709.5925
77.6000	628.6225
77.6100	561.9625
77.6200	590.3825
77.6300	652.3475
77.6400	685.6775
77.6500	757.0275
77.6600	714.4700
77.6700	640.4975
77.6800	633.3325
77.6900	604.8350
77.7000	611.8275
77.7100	604.8425
77.7200	516.8625
77.7300	542.6225
77.7400	552.5325
77.7500	478.6975
77.7600	535.4175
77.7700	647.4475
77.7800	645.3800
77.7900	531.2800
77.8000	476.1525
77.8100	483.3325
77.8200	549.7200
77.8300	685.3425
77.8400	759.4825
77.8500	681.3450
77.8600	607.1875
77.8700	590.5225
77.8800	602.2875
77.8900	569.2900
77.9000	476.4875
77.9100	423.8600
77.9200	445.0825
77.9300	523.4900
77.9400	557.1975
77.9500	587.8725
77.9600	597.7325
77.9700	583.3325
77.9800	621.1925
77.9900	631.0725
78.0000	616.6675
78.0100	616.6675
78.0200	559.9050
78.0300	563.9625
78.0400	600.0000
78.0500	505.4325
78.0600	490.0675
78.0700	561.6975
78.0800	611.6925
78.0900	595.5250
78.1000	557.2150
78.1100	531.1000
78.1200	469.4225
78.1300	490.0200
78.1400	533.3325
78.1500	533.3325
78.1600	476.6650
78.1700	461.6625
78.1800	539.9875
78.1900	573.8925
78.2000	547.7875
78.2100	514.4550
78.2200	500.0000
78.2300	528.3100
78.2400	587.7425
78.2500	654.4050
78.2600	607.8650
78.2700	587.7300
78.2800	654.3925
78.2900	598.4600
78.3000	533.3325
78.3100	523.9050
78.3200	554.3750
78.3300	526.7775
78.3400	483.3325
78.3500	483.3325
78.3600	530.4475
78.3700	566.6675
78.3800	510.1425
78.3900	485.5050
78.4000	556.5125
78.4100	656.5050
78.4200	652.9175
78.4300	579.0050
78.4400	568.8300
78.4500	611.5725
78.4600	567.4475
78.4700	488.4325
78.4800	476.0775
78.4900	473.9250
78.5000	457.2575
78.5100	497.0350
78.5200	580.3625
78.5300	569.6425
78.5400	486.3125
78.5500	468.8050
78.5600	549.1475
78.5700	637.6025
78.5800	647.8675
78.5900	652.1300
78.6000	619.6775
78.6100	611.5250
78.6200	623.9375
78.6300	588.4825
78.6400	576.0600
78.6500	564.5475
78.6600	521.8250
78.6700	500.0000
78.6800	593.8975
78.6900	610.3350
78.7000	576.0550
78.7100	527.0125
78.7200	492.7200
78.7300	528.1550
78.7400	550.0000
78.7500	625.0625
78.7600	655.1875
78.7700	577.0500
78.7800	523.9525
78.7900	544.8025
78.8000	566.6675
78.8100	585.4200
78.8200	571.8725
78.8300	493.7525
78.8400	487.4950
78.8500	563.5300
78.8600	590.6275
78.8700	545.8500
78.8800	526.0375
78.8900	552.0700
78.9000	566.6675
78.9100	594.7675
78.9200	569.8375
78.9300	514.6025
78.9400	528.0925
78.9500	643.6300
78.9600	641.7725
78.9700	499.0850
78.9800	423.9725
78.9900	463.4625
79.0000	528.0750
79.0100	559.3575
79.0200	529.2425
79.0300	509.3550
79.0400	535.3750
79.0500	503.2350
79.0600	541.4825
79.0700	618.7025
79.0800	567.8825
79.0900	535.3650
79.1000	550.0000
79.1100	587.3900
79.1200	588.6275
79.1300	566.6675
79.1400	557.3225
79.1500	521.9700
79.1600	490.6575
79.1700	502.0150
79.1800	591.3900
79.1900	659.3400
79.2000	676.0050
79.2100	636.6450
79.2200	543.9800
79.2300	509.3350
79.2400	563.3400
79.2500	628.0000
79.2600	659.3325
79.2700	713.3250
79.2800	740.6700
79.2900	640.0350
79.3000	529.3525
79.3100	537.3125
79.3200	557.3400
79.3300	512.6975
79.3400	501.9825
79.3500	498.0175
79.3600	436.7175
79.3700	446.6100
79.3800	483.3325
79.3900	501.9725
79.4000	600.5400
79.4100	629.3950
79.4200	581.3650
79.4300	538.7175
79.4400	544.6125
79.4500	557.3525
79.4600	503.4325
79.4700	513.2275
79.4800	550.0000
79.4900	550.0000
79.5000	559.3100
79.5100	603.9000
79.5200	596.1025
79.5300	613.2000
79.5400	547.6400
79.5500	559.7125
79.5600	642.6375
79.5700	640.6975
79.5800	521.7150
79.5900	451.9350
79.6000	531.7650
79.6100	629.8275
79.6200	629.4750
79.6300	590.7025
79.6400	639.1075
79.6500	655.4500
79.6600	577.5700
79.6700	514.7475
79.6800	472.1250
79.6900	524.3275
79.7000	555.4625
79.7100	524.0450
79.7200	544.5300
79.7300	575.9525
79.7400	555.4750
79.7500	570.4725
79.7600	627.8525
79.7700	622.1500
79.7800	609.2825
79.7900	551.7000
79.8000	592.8000
79.8100	638.8300
79.8200	616.6675
79.8300	588.8350
79.8400	566.6675
79.8500	594.4925
79.8600	607.3925
79.8700	535.0900
79.8800	492.6050
79.8900	490.7300
79.9000	483.3325
79.9100	529.6775
79.9200	585.2025
79.9300	590.7325
79.9400	564.8025
79.9500	494.4100
79.9600	551.9025
79.9700	596.2825
79.9800	548.1425
79.9900	551.8550
80.0000	566.6675
80.0100	594.4425
80.0200	653.6975
80.0300	683.3325
80.0400	683.3325
80.0500	563.0225
80.0600	475.9200
80.0700	529.5975
80.0800	594.4225
80.0900	616.6675
80.1000	561.1700
80.1100	609.1525
80.1200	627.8475
80.1300	472.3750
80.1400	466.5425
80.1500	487.1125
80.1600	477.7300
80.1700	583.1800
80.1800	576.0700
80.1900	507.4275
80.2000	555.4350
80.2100	600.0000
80.2200	664.6600
80.2300	753.6100
80.2400	727.9225
80.2500	627.9300
80.2600	601.8000
80.2700	662.8250
80.2800	709.2300
80.2900	753.5850
80.3000	727.9625
80.3100	609.5125
80.3200	568.4525
80.3300	647.9100
80.3400	736.8975
80.3500	812.7825
80.3600	767.0025
80.3700	755.3250
80.3800	800.0000
80.3900	772.3425
80.4000	630.1700
80.4100	625.5000
80.4200	718.4300
80.4300	733.3325
80.4400	678.0525
80.4500	707.0300
80.4600	692.9775
80.4700	716.2225
80.4800	746.4975
80.4900	698.2500
80.5000	701.7475
80.5100	771.9000
80.5200	770.6450
80.5300	779.3500
80.5400	798.2625
80.5500	764.9325
80.5600	740.8000
80.5700	760.9300
80.5800	801.7275
80.5900	899.4350
80.6000	985.0575
80.6100	926.4475
80.6200	976.9825
80.6300	1140.2025
80.6400	1144.8550
80.6500	1256.2225
80.6600	1374.1450
80.6700	1513.6625
80.6800	1872.1725
80.6900	2048.2975
80.7000	2281.2950
80.7100	2694.5325
80.7200	3050.2950
80.7300	3484.5875
80.7400	3891.0700
80.7500	4134.2900
80.7600	4308.4325
80.7700	4282.4025
80.7800	4355.9625
80.7900	4180.6200
80.8000	3529.7700
80.8100	3117.4625
80.8200	2591.5250
80.8300	1950.7875
80.8400	1641.6625
80.8500	1539.1700
80.8600	1434.1850
80.8700	1330.0125
80.8800	1354.9725
80.8900	1326.7125
80.9000	1303.3050
80.9100	1315.0175
80.9200	1409.8875
80.9300	1545.7800
80.9400	1528.4050
80.9500	1574.8675
80.9600	1823.8925
80.9700	2222.8950
80.9800	2625.4775
80.9900	2700.9975
81.0000	2551.0075
81.0100	2647.9600
81.0200	2701.0325
81.0300	2459.6100
81.0400	2106.3975
81.0500	1777.9400
81.0600	1540.3250
81.0700	1477.4150
81.0800	1372.0825
81.0900	1193.5825
81.1000	1078.5275
81.1100	960.2700
81.1200	909.1325
81.1300	971.4500
81.1400	971.0225
81.1500	915.0775
81.1600	927.3800
81.1700	913.5000
81.1800	846.8375
81.1900	761.9325
81.2000	716.6675
81.2100	698.4275
81.2200	710.6875
81.2300	687.7475
81.2400	650.0000
81.2500	668.2275
81.2600	637.7675
81.2700	618.2225
81.2800	724.4350
81.2900	690.6950
81.3000	618.2150
81.3100	651.5450
81.3200	703.0850
81.3300	678.7150
81.3400	587.8250
81.3500	577.3025
81.3600	572.7025
81.3700	586.3900
81.3800	616.6675
81.3900	671.2350
81.4000	680.2925
81.4100	659.0925
81.4200	730.3000
81.4300	701.5325
81.4400	587.8950
81.4500	495.4825
81.4600	477.2550
81.4700	545.4175
81.4800	556.0875
81.4900	551.4950
81.5000	612.0600
81.5100	722.6200
81.5200	701.6500
81.5300	542.5900
81.5400	512.0325
81.5500	577.2150
81.5600	563.7200
81.5700	569.6075
81.5800	554.6650
81.5900	516.6675
81.6000	589.1775
81.6100	650.0000
81.6200	577.5125
81.6300	516.6675
81.6400	607.2450
81.6500	656.1650
81.6600	642.3875
81.6700	659.0525
81.6800	648.5625
81.6900	551.8825
81.7000	519.5275
81.7100	513.8125
81.7200	510.4700
81.7300	542.3775
81.7400	595.2100
81.7500	588.1300
81.7600	586.1550
81.7700	643.7775
81.7800	666.6675
81.7900	576.3250
81.8000	518.0650
81.8100	605.5800
81.8200	657.6375
81.8300	595.8350
81.8400	495.8450
81.8500	459.0250
81.8600	466.6675
81.8700	502.7500
81.8800	605.4875
81.8900	585.5075
81.9000	480.6025
81.9100	531.1300
81.9200	609.0125
81.9300	580.6225
81.9400	586.0375
81.9500	598.6525
81.9600	556.3150
81.9700	524.3300
81.9800	534.6725
81.9900	513.9975
82.0000	537.3275
82.0100	574.3350
82.0200	512.6925
82.0300	448.6800
82.0400	469.3025
82.0500	455.0475
82.0600	416.6675
82.0700	461.6000
82.0800	491.0150
82.0900	510.2825
82.1000	533.3325
82.1100	470.4750
82.1200	506.4450
82.1300	610.2625
82.1400	615.3850
82.1500	537.1925
82.1600	555.0975
82.1700	625.6350
82.1800	597.4650
82.1900	557.7025
82.2000	523.1100
82.2100	544.8075
82.2200	610.2125
82.2300	597.5025
82.2400	611.4450
82.2500	676.8625
82.2600	646.2875
82.2700	537.3475
82.2800	501.2300
82.2900	561.4000
82.3000	519.5000
82.3100	485.7700
82.3200	534.5475
82.3300	532.1225
82.3400	516.6675
82.3500	516.6675
82.3600	498.8000
82.3700	536.9200
82.3800	610.1200
82.3900	606.5525
82.4000	520.8575
82.4100	484.5125
82.4200	526.7625
82.4300	576.7575
82.4400	600.0000
82.4500	555.4250
82.4600	507.7525
82.4700	553.4675
82.4800	502.0000
82.4900	425.5750
82.5000	468.9525
82.5100	571.2250
82.5200	579.9275
82.5300	524.4350
82.5400	525.5625
82.5500	515.5425
82.5600	464.4300
82.5700	477.7875
82.5800	561.1100
82.5900	555.5675
82.6000	516.6675
82.6100	552.1950
82.6200	503.4125
82.6300	442.2125
82.6400	485.5025
82.6500	587.6575
82.6600	587.9000
82.6700	542.2025
82.6800	558.8675
82.6900	566.6675
82.7000	557.8025
82.7100	496.8350
82.7200	485.4350
82.7300	596.3750
82.7400	631.2500
82.7500	511.4800
82.7600	442.1825
82.7700	476.5425
82.7800	535.3800
82.7900	531.2950
82.8000	517.6825
82.8100	551.0100
82.8200	593.1750
82.8300	572.4975
82.8400	533.3325
82.8500	515.6750
82.8600	508.8275
82.8700	499.0175
82.8800	492.1550
82.8900	588.2025
82.9000	640.2125
82.9100	510.8800
82.9200	478.3600
82.9300	586.2000
82.9400	580.4825
82.9500	533.3325
82.9600	524.5300
82.9700	569.4750
82.9800	599.0675
82.9900	539.3500
83.0000	473.6175
83.0100	467.5850
83.0200	536.0700
83.0300	565.7600
83.0400	567.5700
83.0500	539.4225
83.0600	526.3400
83.0700	567.5550
83.0800	557.0075
83.0900	507.0150
83.1000	500.8725
83.1100	420.2250
83.1200	385.9225
83.1300	512.1950
83.1400	635.8925
83.1500	674.5750
83.1600	692.9325
83.1700	725.4200
83.1800	750.8325
83.1900	722.9300
83.2000	613.3750
83.2100	558.7425
83.2200	557.9275
83.2300	567.4750
83.2400	557.1300
83.2500	533.3325
83.2600	524.6050
83.2700	595.2075
83.2800	666.6675
83.2900	605.6175
83.3000	576.1575
83.3100	547.7025
83.3200	517.4275
83.3300	542.0450
83.3400	610.9575
83.3500	623.1400
83.3600	513.7100
83.3700	519.6000
83.3800	548.5425
83.3900	542.7500
83.4000	610.1275
83.4100	641.3100
83.4200	624.6475
83.4300	512.4625
83.4400	468.7525
83.4500	568.7350
83.4600	599.3150
83.4700	678.7325
83.4800	749.3275
83.4900	698.6650
83.5000	606.0175
83.5100	541.3375
83.5200	541.9925
83.5300	627.9025
83.5400	665.3875
83.5500	598.7325
83.5600	514.7825
83.5700	579.0450
83.5800	648.7675
83.5900	556.1975
83.6000	551.8150
83.6100	600.0000
83.6200	651.7800
83.6300	665.4925
83.6400	607.4600
83.6500	548.8500
83.6600	542.5200
83.6700	592.5125
83.6800	573.6050
83.6900	584.9900
83.7000	616.1200
83.7100	565.5875
83.7200	567.7350
83.7300	565.6100
83.7400	550.5225
83.7500	618.2150
83.7600	701.0200
83.7700	638.8975
83.7800	558.5825
83.7900	523.7725
83.8000	509.0600
83.8100	584.7700
83.8200	590.4850
83.8300	507.1675
83.8400	526.6100
83.8500	591.8925
83.8600	574.3275
83.8700	558.5550
83.8800	592.3200
83.8900	599.5700
83.9000	591.8775
83.9100	608.5425
83.9200	599.5900
83.9300	540.6575
83.9400	534.1275
83.9500	549.6100
83.9600	541.8575
83.9700	550.0000
83.9800	609.6325
83.9900	564.4800
84.0000	500.7150
84.0100	567.3700
84.0200	600.0000
84.0300	608.5025
84.0400	608.1675
84.0500	515.0425
84.0600	458.8100
84.0700	517.2900
84.0800	575.4575
84.0900	574.5525
84.1000	541.5200
84.1100	567.2350
84.1200	608.4725
84.1300	557.3850
84.1400	500.0000
84.1500	500.0000
84.1600	525.3750
84.1700	558.4550
84.1800	558.2150
84.1900	550.0000
84.2000	558.4450
84.2100	541.3425
84.2200	499.7925
84.2300	474.9000
84.2400	491.9575
84.2500	541.9475
84.2600	617.2075
84.2700	658.2475
84.2800	616.3350
84.2900	608.5725
84.3000	658.5625
84.3100	750.5800
84.3200	799.8625
84.3300	791.7325
84.3400	783.2100
84.3500	741.4925
84.3600	741.8300
84.3700	691.2100
84.3800	566.3850
84.3900	558.5500
84.4000	666.9850
84.4100	750.0725
84.4200	674.6450
84.4300	625.1425
84.4400	641.5925
84.4500	633.3750
84.4600	641.6500
84.4700	633.3325
84.4800	683.3925
84.4900	691.6375
84.5000	633.3300
84.5100	616.6675
84.5200	666.6350
84.5300	741.6400
84.5400	766.6675
84.5500	833.1975
84.5600	883.3750
84.5700	850.0500
84.5800	800.1150
84.5900	750.0650
84.6000	741.6300
84.6100	758.2925
84.6200	816.4025
84.6300	874.9525
84.6400	982.7100
84.6500	1083.3325
84.6600	1075.0600
84.6700	1050.1275
84.6800	1074.6600
84.6900	1207.5425
84.7000	1423.8625
84.7100	1616.0275
84.7200	1774.0775
84.7300	2048.0650
84.7400	2398.1575
84.7500	2789.0700
84.7600	3049.6000
84.7700	3313.7450
84.7800	3747.3975
84.7900	4015.7675
84.8000	3803.9675
84.8100	3385.2650
84.8200	3126.8750
84.8300	2696.4425
84.8400	2219.3325
84.8500	1935.2575
84.8600	1833.0500
84.8700	1809.0625
84.8800	1488.4375
84.8900	1110.0300
84.9000	967.6175
84.9100	933.0075
84.9200	966.3325
84.9300	958.8475
84.9400	1047.5400
84.9500	1215.5875
84.9600	1274.8150
84.9700	1307.7675
84.9800	1325.1925
84.9900	1446.8425
85.0000	1672.7825
85.0100	1831.6850
85.0200	2005.5975
85.0300	2287.1550
85.0400	2409.8675
85.0500	2382.4400
85.0600	2278.8775
85.0700	2068.5275
85.0800	1886.6500
85.0900	1693.8400
85.1000	1624.7550
85.1100	1552.5050
85.1200	1345.4900
85.1300	1103.6325
85.1400	975.2650
85.1500	1015.0550
85.1600	953.8225
85.1700	809.1675
85.1800	823.5900
85.1900	906.9000
85.2000	845.4550
85.2100	757.4450
85.2200	807.4325
85.2300	745.0250
85.2400	666.0475
85.2500	715.4075
85.2600	725.9575
85.2700	659.9525
85.2800	608.6625
85.2900	576.0000
85.3000	621.9575
85.3100	692.0100
85.3200	739.2325
85.3300	768.0775
85.3400	709.4050
85.3500	691.3050
85.3600	644.2350
85.3700	591.2950
85.3800	552.2575
85.3900	515.9050
85.4000	596.9100
85.4100	619.0125
85.4200	590.4800
85.4300	656.3300
85.4400	692.0725
85.4500	707.1025
85.4600	693.7450
85.4700	673.7375
85.4800	660.4600
85.4900	648.2775
85.5000	691.2325
85.5100	715.7850
85.5200	693.8925
85.5300	657.8825
85.5400	666.6675
85.5500	674.5400
85.5600	699.0700
85.5700	693.0775
85.5800	674.5250
85.5900	683.3325
85.6000	628.4025
85.6100	543.1400
85.6200	508.8300
85.6300	500.0000
85.6400	546.9600
85.6500	592.1775
85.6600	528.6175
85.6700	458.8550
85.6800	481.2250
85.6900	532.2675
85.7000	581.1825
85.7100	624.4575
85.7200	602.1925
85.7300	574.4475
85.7400	614.4300
85.7500	696.6150
85.7600	680.1275
85.7700	607.7575
85.7800	616.6675
85.7900	577.9275
85.8000	564.3025
85.8100	646.4225
85.8200	707.7325
85.8300	670.3100
85.8400	585.7850
85.8500	534.5700
85.8600	532.0850
85.8700	534.5925
85.8800	585.9550
85.8900	620.5075
85.9000	566.6675
85.9100	589.7125
85.9200	585.9600
85.9300	619.0400
85.9400	738.3275
85.9500	729.7150
85.9600	582.4700
85.9700	536.8750
85.9800	577.0700
85.9900	550.0000
86.0000	618.6850
86.0100	722.8775
86.0200	643.3150
86.0300	539.5100
86.0400	589.4925
86.0500	571.0475
86.0600	577.4475
86.0700	687.9575
86.0800	680.2325
86.0900	624.2475
86.1000	640.9075
86.1100	612.1575
86.1200	589.3550
86.1300	662.0075
86.1400	686.4625
86.1500	597.1850
86.1600	495.6375
86.1700	442.4675
86.1800	501.0800
86.1900	583.3325
86.2000	575.8175
86.2100	596.7050
86.2200	618.3250
86.2300	577.5075
86.2400	557.4925
86.2500	551.6950
86.2600	555.7725
86.2700	568.3850
86.2800	572.4025
86.2900	644.7675
86.3000	655.2675
86.3100	562.7525
86.3200	553.8825
86.3300	547.9400
86.3400	579.9350
86.3500	714.8500
86.3600	688.8225
86.3700	648.1575
86.3800	637.0425
86.3900	622.2000
86.4000	635.2125
86.4100	638.8300
86.4200	622.3800
86.4300	551.9175
86.4400	548.0700
86.4500	537.2175
86.4600	485.2875
86.4700	532.8125
86.4800	631.3525
86.4900	650.0000
86.5000	620.6775
86.5100	649.2500
86.5200	696.7450
86.5300	693.8675
86.5400	684.2575
86.5500	578.1050
86.5600	593.7500
86.5700	628.1450
86.5800	570.8850
86.5900	533.3325
86.6000	547.8650
86.6100	588.4450
86.6200	667.4350
86.6300	653.6275
86.6400	513.8025
86.6500	510.0650
86.6600	595.5725
86.6700	669.4300
86.6800	658.9625
86.6900	540.0950
86.7000	490.5325
86.7100	550.3500
86.7200	602.2950
86.7300	597.6925
86.7400	623.8400
86.7500	583.1725
86.7600	552.4625
86.7700	585.6950
86.7800	559.5200
86.7900	550.0000
86.8000	607.0550
86.8100	669.0825
86.8200	650.0000
86.8300	650.0000
86.8400	664.2075
86.8500	647.8475
86.8600	635.4525
86.8700	725.8325
86.8800	719.6450
86.8900	597.9850
86.9000	578.2500
86.9100	637.8325
86.9200	708.9575
86.9300	675.1300
86.9400	578.1375
86.9500	672.8850
86.9600	686.8200
86.9700	628.0525
86.9800	596.6075
86.9900	541.9925
87.0000	641.9500
87.0100	679.0475
87.0200	636.0450
87.0300	630.6075
87.0400	663.9250
87.0500	683.3325
87.0600	697.2300
87.0700	716.6675
87.0800	723.6000
87.0900	726.4075
87.1000	661.3150
87.1100	617.8925
87.1200	611.4325
87.1300	574.7150
87.1400	633.3325
87.1500	605.8050
87.1600	594.1650
87.1700	660.8025
87.1800	645.1225
87.1900	600.9275
87.2000	656.8450
87.2100	673.5050
87.2200	669.6750
87.2300	656.8225
87.2400	646.2225
87.2500	575.8250
87.2600	564.2625
87.2700	701.2525
87.2800	833.9200
87.2900	802.0150
87.3000	642.7200
87.3100	664.4675
87.3200	702.2900
87.3300	583.3325
87.3400	583.3325
87.3500	583.3325
87.3600	576.6100
87.3700	613.6700
87.3800	683.3325
87.3900	649.8375
87.4000	613.3825
87.4100	640.0175
87.4200	643.3250
87.4300	666.6725
87.4400	690.0275
87.4500	689.9125
87.4600	750.0000
87.4700	690.2750
87.4800	593.3725
87.4900	589.9525
87.5000	626.4500
87.5100	653.4575
87.5200	626.7375
87.5300	610.0775
87.5400	626.3200
87.5500	673.2375
87.5600	703.0250
87.5700	720.2225
87.5800	667.2625
87.5900	649.3650
87.6000	719.5950
87.6100	750.0000
87.6200	697.8800
87.6300	636.1875
87.6400	673.1650
87.6500	715.7850
87.6600	753.7025
87.6700	720.3850
87.6800	687.0700
87.6900	647.2950
87.7000	623.1150
87.7100	633.3325
87.7200	626.9025
87.7300	603.8200
87.7400	576.9175
87.7500	598.7000
87.7600	694.7875
87.7700	798.6150
87.7800	805.3325
87.7900	720.5875
87.8000	668.1800
87.8100	610.3100
87.8200	587.3050
87.8300	573.0050
87.8400	589.6625
87.8500	587.3575
87.8600	598.2300
87.8700	643.6950
87.8800	614.4475
87.8900	639.9125
87.9000	739.6125
87.9100	750.0000
87.9200	724.9575
87.9300	714.5925
87.9400	772.9100
87.9500	814.5050
87.9600	823.0875
87.9700	700.2675
87.9800	666.3275
87.9900	762.3975
88.0000	715.2425
88.0100	593.8200
88.0200	595.6775
88.0300	616.6675
88.0400	592.0500
88.0500	580.7275
88.0600	571.9700
88.0700	515.6850
88.0800	636.7100
88.0900	748.8750
88.1000	833.3325
88.1100	857.6975
88.1200	863.5075
88.1300	787.8550
88.1400	803.0500
88.1500	824.2850
88.1600	774.1825
88.1700	816.6675
88.1800	786.5300
88.1900	757.4050
88.2000	812.0175
88.2100	881.3275
88.2200	912.7550
88.2300	840.5900
88.2400	829.5900
88.2500	733.3325
88.2600	792.8625
88.2700	929.7175
88.2800	1001.1350
88.2900	991.8600
88.3000	958.0750
88.3100	1015.6150
88.3200	983.3325
88.3300	1042.2050
88.3400	1097.1000
88.3500	982.3950
88.3600	1008.5875
88.3700	1151.7625
88.3800	1222.5075
88.3900	1169.2025
88.4000	1044.1800
88.4100	1050.7650
88.4200	1100.7375
88.4300	1156.5000
88.4400	1211.5650
88.4500	1192.9250
88.4600	1139.7175
88.4700	1235.1125
88.4800	1298.8725
88.4900	1262.0025
88.5000	1282.3225
88.5100	1233.8100
88.5200	1278.0750
88.5300	1351.2525
88.5400	1387.4650
88.5500	1357.4725
88.5600	1522.0025
88.5700	1494.3450
88.5800	1511.5625
88.5900	1606.1175
88.6000	1790.2300
88.6100	1943.8375
88.6200	1906.2150
88.6300	2156.3325
88.6400	2411.3600
88.6500	2572.4950
88.6600	2828.0000
88.6700	3066.6700
88.6800	3210.9350
88.6900	3688.0225
88.7000	4437.6500
88.7100	5341.4525
88.7200	6376.2125
88.7300	7233.5250
88.7400	8875.4675
88.7500	10582.6425
88.7600	12051.5725
88.7700	13751.9800
88.7800	15153.6750
88.7900	15748.1500
88.8000	15345.7400
88.8100	14908.3875
88.8200	13584.6625
88.8300	11645.2325
88.8400	10023.5450
88.8500	8700.1225
88.8600	7306.6525
88.8700	6288.8325
88.8800	5378.0725
88.8900	4723.9950
88.9000	4415.0575
88.9100	3779.9675
88.9200	3475.0025
88.9300	3510.0200
88.9400	3226.8625
88.9500	3122.9625
88.9600	3416.6425
88.9700	3680.5975
88.9800	3856.7100
88.9900	4000.9750
89.0000	4165.0425
89.0100	4829.2400
89.0200	5494.5200
89.0300	6213.2400
89.0400	7223.8150
89.0500	7807.3700
89.0600	8160.7000
89.0700	8338.4800
89.0800	8288.3575
89.0900	7857.8000
89.1000	7056.7575
89.1100	6549.5425
89.1200	5786.8925
89.1300	4761.0425
89.1400	4089.8250
89.1500	3658.2350
89.1600	3181.7600
89.1700	2727.4525
89.1800	2397.8025
89.1900	2154.8150
89.2000	2024.9500
89.2100	1926.6725
89.2200	1783.4450
89.2300	1616.8850
89.2400	1470.1950
89.2500	1380.1725
89.2600	1358.0625
89.2700	1421.6025
89.2800	1379.1625
89.2900	1186.1200
89.3000	1082.3650
89.3100	1185.3225
89.3200	1169.5275
89.3300	1202.0550
89.3400	1166.6675
89.3500	1195.7625
89.3600	1261.8275
89.3700	1250.0000
89.3800	1201.8300
89.3900	1064.1075
89.4000	1050.2350
89.4100	1152.4725
89.4200	1104.5275
89.4300	880.9550
89.4400	945.1775
89.4500	988.2200
89.4600	949.7775
89.4700	1028.6150
89.4800	983.7075
89.4900	885.9075
89.5000	864.0600
89.5100	871.9475
89.5200	767.3475
89.5300	678.6800
89.5400	754.8775
89.5500	927.7525
89.5600	797.1950
89.5700	851.7725
89.5800	867.8075
89.5900	774.1575
89.6000	763.7300
89.6100	772.6050
89.6200	727.3275
89.6300	804.5425
89.6400	812.1350
89.6500	786.4350
89.6600	718.4250
89.6700	637.8325
89.6800	654.4875
89.6900	693.5300
89.7000	771.1325
89.7100	796.6975
89.7200	842.2225
89.7300	848.9350
89.7400	822.1100
89.7500	865.6900
89.7600	794.6700
89.7700	737.7225
89.7800	767.5075
89.7900	786.1050
89.8000	695.6450
89.8100	692.0200
89.8200	708.0025
89.8300	683.3325
89.8400	687.6425
89.8500	678.5050
89.8600	616.6675
89.8700	638.0500
89.8800	734.1225
89.8900	824.8250
89.9000	816.9700
89.9100	828.5825
89.9200	687.1250
89.9300	604.2100
89.9400	616.6675
89.9500	641.7850
89.9600	691.6150
89.9700	662.4700
89.9800	783.3900
89.9900	725.0500
90.0000	700.0000
90.0100	671.1700
90.0200	566.9050
90.0300	537.1475
90.0400	604.0850
90.0500	616.6675
90.0600	632.9150
90.0700	663.0800
90.0800	591.9200
90.0900	558.6100
90.1000	577.5175
90.1100	704.6500
90.1200	662.6725
90.1300	669.9125
90.1400	693.6225
90.1500	582.5050
90.1600	676.7650
90.1700	812.7300
90.1800	819.6275
90.1900	871.5900
90.2000	798.2075
90.2100	652.2025
90.2200	573.2800
90.2300	642.2625
90.2400	616.6675
90.2500	593.5925
90.2600	535.8375
90.2700	622.9375
90.2800	726.6800
90.2900	790.0675
90.3000	688.6350
90.3100	657.5550
90.3200	702.1600
90.3300	785.4375
90.3400	827.5450
90.3500	720.1525
90.3600	631.5450
90.3700	679.6250
90.3800	640.7900
90.3900	583.1650
90.4000	700.0000
90.4100	692.6750
90.4200	673.9675
90.4300	718.1950
90.4400	768.8225
90.4500	709.4350
90.4600	672.5200
90.4700	626.1475
90.4800	582.0925
90.4900	545.2275
90.5000	653.5575
90.5100	638.2925
90.5200	558.0800
90.5300	671.1425
90.5400	739.4625
90.5500	721.0050
90.5600	782.5550
90.5700	744.4875
90.5800	804.9400
90.5900	619.5150
90.6000	590.7675
90.6100	676.4700
90.6200	639.7400
90.6300	596.5925
90.6400	607.1100
90.6500	679.6900
90.6600	589.8800
90.6700	563.4475
90.6800	626.7175
90.6900	663.3275
90.7000	646.6725
90.7100	630.0175
90.7200	626.5800
90.7300	653.4975
90.7400	609.8425
90.7500	636.9225
90.7600	583.3325
90.7700	586.5800
90.7800	603.2350
90.7900	623.1125
90.8000	653.2125
90.8100	653.8675
90.8200	600.0000
90.8300	606.3525
90.8400	630.1675
90.8500	635.5875
90.8600	697.8150
90.8700	610.4050
90.8800	583.3325
90.8900	580.2275
90.9000	545.0000
90.9100	462.3350
90.9200	538.1725
90.9300	633.3325
90.9400	621.1375
90.9500	554.5175
90.9600	518.1550
90.9700	593.9725
90.9800	569.6700
90.9900	586.3250
91.0000	591.0625
91.0100	552.9675
91.0200	581.4475
91.0300	661.7775
91.0400	716.6675
91.0500	696.2175
91.0600	605.8200
91.0700	636.2325
91.0800	638.4550
91.0900	560.3350
91.1000	472.9075
91.1100	603.2950
91.1200	691.4800
91.1300	655.6575
91.1400	686.1500
91.1500	694.3900
91.1600	666.6675
91.1700	644.4100
91.1800	533.3325
91.1900	544.3700
91.2000	608.2425
91.2100	636.3225
91.2200	569.3900
91.2300	591.4700
91.2400	630.6325
91.2500	605.9100
91.2600	568.7450
91.2700	648.0025
91.2800	555.3100
91.2900	580.6900
91.3000	569.2975
91.3100	601.6725
91.3200	705.2175
91.3300	717.7525
91.3400	628.1625
91.3500	625.7350
91.3600	735.9225
91.3700	564.1150
91.3800	575.3875
91.3900	693.9200
91.4000	564.1500
91.4100	565.0250
91.4200	647.5075
91.4300	645.7400
91.4400	709.2575
91.4500	651.9175
91.4600	576.4525
91.4700	618.7250
91.4800	535.7575
91.4900	564.4700
91.5000	640.4000
91.5100	571.3900
91.5200	500.0000
91.5300	504.7325
91.5400	540.3950
91.5500	592.7050
91.5600	645.3375
91.5700	625.9450
91.5800	678.7175
91.5900	663.7800
91.6000	724.8625
91.6100	571.2150
91.6200	602.2625
91.6300	623.4200
91.6400	675.6225
91.6500	746.7000
91.6600	820.0350
91.6700	724.5150
91.6800	660.0875
91.6900	603.5750
91.7000	510.1550
91.7100	475.3025
91.7200	548.3650
91.7300	654.2725
91.7400	691.8325
91.7500	741.5475
91.7600	660.2150
91.7700	502.0900
91.7800	524.9825
91.7900	570.9275
91.8000	495.6700
91.8100	575.1550
91.8200	516.6675
91.8300	512.6225
91.8400	491.3750
91.8500	550.0000
91.8600	534.0975
91.8700	432.4775
91.8800	557.8600
91.8900	610.8050
91.9000	560.8400
91.9100	522.4600
91.9200	580.1025
91.9300	692.8750
91.9400	764.7700
91.9500	731.1450
91.9600	590.8300
91.9700	664.9025
91.9800	770.3725
91.9900	644.5850
92.0000	481.2975
92.0100	609.0875
92.0200	668.8825
92.0300	550.0000
92.0400	555.3500
92.0500	610.6350
92.0600	701.7600
92.0700	716.6675
92.0800	706.2350
92.0900	608.0300
92.1000	547.0625
92.1100	647.9125
92.1200	488.4150
92.1300	543.4275
92.1400	631.6625
92.1500	611.6875
92.1600	563.3700
92.1700	531.6950
92.1800	516.6675
92.1900	524.7425
92.2000	606.4175
92.2100	652.3300
92.2200	519.8300
92.2300	551.5700
92.2400	579.1425
92.2500	693.8075
92.2600	628.7225
92.2700	578.7550
92.2800	548.4825
92.2900	681.9525
92.3000	501.4925
92.3100	519.6300
92.3200	551.4700
92.3300	563.7475
92.3400	536.2300
92.3500	562.3550
92.3600	515.2400
92.3700	508.4925
92.3800	604.2125
92.3900	656.9675
92.4000	727.8050
92.4100	655.6975
92.4200	531.9725
92.4300	530.1600
92.4400	677.9800
92.4500	610.0300
92.4600	537.2825
92.4700	587.2500
92.4800	620.3875
92.4900	469.2325
92.5000	510.1800
92.5100	628.2875
92.5200	566.6675
92.5300	567.9075
92.5400	587.0200
92.5500	641.8600
92.5600	736.7200
92.5700	563.0775
92.5800	524.9650
92.5900	633.3325
92.6000	632.1700
92.6100	621.2775
92.6200	671.9125
92.6300	507.6150
92.6400	392.2975
92.6500	519.9950
92.6600	568.8650
92.6700	600.0000
92.6800	598.9225
92.6900	582.2675
92.7000	560.3300
92.7100	485.4825
92.7200	757.3550
92.7300	609.5000
92.7400	496.9600
92.7500	456.0150
92.7600	552.9750
92.7700	598.0375
92.7800	572.4900
92.7900	668.5875
92.8000	694.3050
92.8100	597.1850
92.8200	555.5675
92.8300	650.0000
92.8400	648.1875
92.8500	616.6675
92.8600	617.5525
92.8700	633.3325
92.8800	631.6050
92.8900	601.7075
92.9000	630.8025
92.9100	579.1675
92.9200	504.1125
92.9300	586.5825
92.9400	641.9850
92.9500	484.9150
92.9600	520.5700
92.9700	596.1475
92.9800	520.4650
92.9900	599.2500
93.0000	579.6375
93.0100	505.1000
93.0200	613.7925
93.0300	545.7525
93.0400	456.2775
93.0500	600.6875
93.0600	616.6675
93.0700	614.6675
93.0800	567.9800
93.0900	600.0000
93.1000	603.1775
93.1100	680.8325
93.1200	616.0525
93.1300	596.9750
93.1400	522.6150
93.1500	680.4100
93.1600	594.8300
93.1700	449.4350
93.1800	438.3200
93.1900	582.2450
93.2000	547.8650
93.2100	488.0450
93.2200	631.7925
93.2300	580.8175
93.2400	500.0000
93.2500	500.0000
93.2600	504.2575
93.2700	648.1475
93.2800	579.7100
93.2900	449.5575
93.3000	434.2000
93.3100	472.1650
93.3200	681.6825
93.3300	619.0850
93.3400	715.0950
93.3500	645.7850
93.3600	467.0400
93.3700	484.0600
93.3800	517.0200
93.3900	533.6775
93.4000	549.3325
93.4100	518.6100
93.4200	616.3525
93.4300	596.6550
93.4400	417.5500
93.4500	467.2350
93.4600	499.7250
93.4700	484.6575
93.4800	566.4125
93.4900	550.2450
93.5000	567.6100
93.5100	634.2375
93.5200	698.7025
93.5300	600.8275
93.5400	665.0900
93.5500	533.1450
93.5600	516.6675
93.5700	516.6675
93.5800	516.5075
93.5900	499.5525
93.6000	450.5575
93.6100	516.6675
93.6200	516.9075
93.6300	550.2225
93.6400	583.4350
93.6500	599.4500
93.6600	500.0000
93.6700	500.3650
93.6800	583.3325
93.6900	583.7125
93.7000	699.6425
93.7100	566.6675
93.7200	566.6675
93.7300	566.5850
93.7400	483.3700
93.7500	566.6550
93.7600	566.6675
93.7700	400.2075
93.7800	632.9125
93.7900	649.9600
93.8000	483.8175
93.8100	533.1600
93.8200	632.9325
93.8300	533.7900
93.8400	533.3325
93.8500	533.3325
93.8600	616.1475
93.8700	583.5600
93.8800	533.7000
93.8900	698.6900
93.9000	600.8400
93.9100	517.4125
93.9200	582.7000
93.9300	682.3300
93.9400	485.4450
93.9500	433.8875
93.9600	532.1700
93.9700	582.7250
93.9800	599.7875
93.9900	600.0000
94.0000	682.1850
94.0100	666.9050
94.0200	600.9900
94.0300	600.0000
94.0400	567.1975
94.0500	550.2750
94.0600	615.5350
94.0700	485.6650
94.0800	483.3325
94.0900	516.0500
94.1000	582.0625
94.1100	534.3125
94.1200	598.6600
94.1300	583.6775
94.1400	485.4475
94.1500	581.1675
94.1600	567.0350
94.1700	452.6450
94.1800	498.8400
94.1900	613.9025
94.2000	649.1925
94.2100	584.9825
94.2200	534.5950
94.2300	598.2850
94.2400	567.5425
94.2500	518.0050
94.2600	451.8175
94.2700	498.6125
94.2800	613.3700
94.2900	568.1050
94.3000	534.3075
94.3100	630.3575
94.3200	617.1700
94.3300	552.0500
94.3400	501.5625
94.3500	548.4125
94.3600	743.5550
94.3700	588.7850
94.3800	583.3325
94.3900	535.0175
94.4000	468.9450
94.4100	466.6675
94.4200	498.8275
94.4300	483.9275
94.4400	531.5275
94.4500	501.2200
94.4600	500.0000
94.4700	403.7550
94.4800	528.2625
94.4900	693.5825
94.5000	571.8650
94.5100	566.6675
94.5200	598.6700
94.5300	440.0650
94.5400	385.3775
94.5500	559.0900
94.5600	550.6975
94.5700	565.9625
94.5800	518.8025
94.5900	516.6675
94.6000	468.8500
94.6100	546.3250
94.6200	757.0100
94.6300	718.9175
94.6400	557.5800
94.6500	502.2975
94.6600	500.0000
94.6700	515.8850
94.6800	484.9100
94.6900	499.2050
94.7000	563.4525
94.7100	709.3700
94.7200	669.1200
94.7300	539.9375
94.7400	660.0025
94.7500	555.8825
94.7600	581.6375
94.7700	583.3325
94.7800	583.3325
94.7900	535.9425
94.8000	612.2825
94.8100	585.1000
94.8200	599.1100
94.8300	505.3900
94.8400	563.0450
94.8500	393.3725
94.8600	651.0325
94.8700	666.6675
94.8800	588.0025
94.8900	646.2375
94.9000	665.7200
94.9100	556.6850
94.9200	518.5900
94.9300	532.3650
94.9400	564.7150
94.9500	550.9825
94.9600	518.6450
94.9700	610.6900
94.9800	522.6850
94.9900	485.3525
95.0000	561.5825
95.0100	660.5250
95.0200	525.9375
95.0300	454.1475
95.0400	512.4925
95.0500	547.9000
95.0600	596.8300
95.0700	537.5875
95.0800	517.7375
95.0900	547.8475
95.1000	690.2525
95.1100	637.6925
95.1200	539.9100
95.1300	471.0775
95.1400	513.3400
95.1500	641.0750
95.1600	603.3650
95.1700	568.9225
95.1800	597.7300
95.1900	631.0500
95.2000	617.8150
95.2100	461.5375
95.2200	605.0675
95.2300	554.6650
95.2400	596.4825
95.2500	553.5350
95.2600	534.5175
95.2700	533.3325
95.2800	486.9250
95.2900	436.9425
95.3000	572.4500
95.3100	629.6875
95.3200	741.4500
95.3300	611.0475
95.3400	538.2675
95.3500	533.3325
95.3600	502.4900
95.3700	469.1700
95.3800	405.0300
95.3900	492.4225
95.4000	515.3975
95.4100	424.3150
95.4200	462.8250
95.4300	466.6675
95.4400	482.0400
95.4500	483.3325
95.4600	483.3325
95.4700	483.3325
95.4800	467.9825
95.4900	389.9375
95.5000	582.7550
95.5100	553.9975
95.5200	580.6575
95.5300	583.3325
95.5400	583.3325
95.5500	522.0850
95.5600	486.0525
95.5700	468.0325
95.5800	619.6250
95.5900	618.0425
95.6000	479.1025
95.6100	543.0650
95.6200	718.0150
95.6300	733.3325
95.6400	595.9625
95.6500	583.3325
95.6600	522.3225
95.6700	531.9150
95.6800	457.1225
95.6900	571.8950
95.7000	568.1025
95.7100	658.0250
95.7200	514.4550
95.7300	621.7275
95.7400	648.5450
95.7500	497.9425
95.7600	528.9350
95.7700	533.3325
95.7800	594.0950
95.7900	675.9275
95.8000	577.0700
95.8100	490.7900
95.8200	559.1850
95.8300	672.8250
95.8400	743.9750
95.8500	628.7550
95.8600	510.6125
95.8700	560.5825
95.8800	642.3725
95.8900	513.7750
95.9000	575.6575
95.9100	779.9775
95.9200	663.9050
95.9300	650.0000
95.9400	483.7650
95.9500	496.8825
95.9600	545.3075
95.9700	655.6875
95.9800	817.6025
95.9900	682.4450
96.0000	545.9925
96.0100	533.3325
96.0200	533.3325
96.0300	503.1925
96.0400	515.0650
96.0500	561.8500
96.0600	521.4950
96.0700	486.5625
96.0800	483.3325
96.0900	558.5500
96.1000	566.6675
96.1100	521.5625
96.1200	486.6050
96.1300	708.7225
96.1400	628.1825
96.1500	526.5625
96.1600	636.7700
96.1700	680.0175
96.1800	668.3300
96.1900	696.6675
96.2000	685.0050
96.2100	593.3825
96.2200	568.3450
96.2300	521.7175
96.2400	801.2700
96.2500	758.4575
96.2600	585.3200
96.2700	431.9650
96.2800	491.4800
96.2900	544.8750
96.3000	520.0900
96.3100	576.4700
96.3200	732.8000
96.3300	630.4600
96.3400	676.4200
96.3500	623.5950
96.3600	542.0125
96.3700	593.0400
96.3800	659.6925
96.3900	741.2625
96.4000	750.0000
96.4100	750.0000
96.4200	705.2775
96.4300	714.9025
96.4400	731.5675
96.4500	718.4375
96.4600	612.4200
96.4700	555.3350
96.4800	609.5400
96.4900	676.1925
96.5000	549.4350
96.5100	607.7025
96.5200	542.3150
96.5300	592.8000
96.5400	674.3150
96.5500	638.7550
96.5600	573.9100
96.5700	655.7800
96.5800	726.0600
96.5900	748.1775
96.6000	735.1575
96.6100	807.5250
96.6200	786.9975
96.6300	738.8400
96.6400	762.9900
96.6500	737.0175
96.6600	703.6925
96.6700	759.2700
96.6800	796.2950
96.6900	814.8100
96.7000	757.4375
96.7100	1001.6700
96.7200	944.5275
96.7300	1096.1075
96.7400	1131.4600
96.7500	1236.8700
96.7600	1412.6675
96.7700	1418.5475
96.7800	1786.2025
96.7900	1833.3325
96.8000	1729.9075
96.8100	1716.6675
96.8200	1687.1300
96.8300	1742.3950
96.8400	1720.4750
96.8500	1421.4775
96.8600	1132.4725
96.8700	1100.0000
96.8800	1070.5000
96.8900	992.9300
96.9000	821.1450
96.9100	1006.3800
96.9200	974.3800
96.9300	937.1950
96.9400	712.3450
96.9500	698.0625
96.9600	744.1800
96.9700	750.0000
96.9800	602.7900
96.9900	568.6150
97.0000	610.8125
97.0100	690.2300
97.0200	788.2575
97.0300	800.0000
97.0400	917.6325
97.0500	1006.8400
97.0600	1016.6675
97.0700	972.5800
97.0800	937.2800
97.0900	1065.5475
97.1000	1186.1475
97.1100	1229.3700
97.1200	1336.1100
97.1300	1247.2425
97.1400	1292.0425
97.1500	1197.2775
97.1600	1080.6300
97.1700	949.3125
97.1800	860.0000
97.1900	791.3425
97.2000	754.0100
97.2100	793.9775
97.2200	741.3725
97.2300	806.6050
97.2400	670.1475
97.2500	650.0000
97.2600	723.2350
97.2700	674.7550
97.2800	637.3825
97.2900	633.3325
97.3000	618.6950
97.3100	572.7625
97.3200	581.3000
97.3300	612.5950
97.3400	572.7825
97.3500	625.1700
97.3600	604.0875
97.3700	614.6200
97.3800	587.4300
97.3900	641.8000
97.4000	693.8425
97.4100	656.1625
97.4200	562.3400
97.4300	520.7850
97.4400	604.3000
97.4500	704.2875
97.4600	716.6675
97.4700	789.6625
97.4800	683.2225
97.4900	535.3125
97.5000	662.5950
97.5100	697.9250
97.5200	554.1125
97.5300	620.8550
97.5400	691.6725
97.5500	714.5825
97.5600	541.6975
97.5700	443.7725
97.5800	593.6775
97.5900	602.0925
97.6000	585.4275
97.6100	656.1875
97.6200	608.3900
97.6300	527.1650
97.6400	574.9275
97.6500	627.0225
97.6600	618.7725
97.6700	529.3100
97.6800	589.4550
97.6900	556.3325
97.7000	564.5550
97.7100	552.1150
97.7200	564.5500
97.7300	683.0575
97.7400	700.0000
97.7500	627.2725
97.7600	558.4925
97.7700	593.6250
97.7800	541.8400
97.7900	591.4875
97.8000	672.6850
97.8100	581.5875
97.8200	697.4675
97.8300	789.3250
97.8400	770.9400
97.8500	752.1375
97.8600	619.2575
97.8700	541.8975
97.8800	605.9525
97.8900	689.2775
97.9000	714.5200
97.9100	673.1100
97.9200	608.5950
97.9300	701.6125
97.9400	673.1225
97.9500	608.6150
97.9600	701.5825
97.9700	629.6050
97.9800	529.6150
97.9900	545.6825
98.0000	564.5050
98.0100	552.1625
98.0200	564.5025
98.0300	581.1675
98.0400	670.3350
98.0500	610.8375
98.0600	600.0000
98.0700	643.4875
98.0800	592.0200
98.0900	597.8275
98.1000	527.5375
98.1100	589.1225
98.1200	686.9375
98.1300	584.0925
98.1400	595.6400
98.1500	614.4850
98.1600	573.2125
98.1700	566.6675
98.1800	725.9725
98.1900	721.0375
98.2000	557.3875
98.2100	547.8125
98.2200	636.8650
98.2300	534.1900
98.2400	502.1925
98.2500	586.8450
98.2600	585.5275
98.2700	525.4450
98.2800	531.1375
98.2900	475.4550
98.3000	437.7300
98.3100	433.3325
98.3200	549.0650
98.3300	667.9250
98.3400	639.9400
98.3500	720.1150
98.3600	661.0200
98.3700	534.3075
98.3800	632.3500
98.3900	707.8375
98.4000	658.8325
98.4100	678.9150
98.4200	509.8550
98.4300	483.3325
98.4400	656.7900
98.4500	582.1575
98.4600	581.1200
98.4700	597.7850
98.4800	701.1575
98.4900	716.6675
98.5000	644.4200
98.5100	575.5400
98.5200	537.7700
98.5300	634.4625
98.5400	678.8925
98.5500	683.3325
98.5600	596.6650
98.5700	568.8900
98.5800	609.9950
98.5900	530.0125
98.6000	588.8750
98.6100	672.2025
98.6200	640.0125
98.6300	618.8950
98.6400	688.8600
98.6500	743.3125
98.6600	591.1925
98.6700	682.1575
98.6800	642.2575
98.6900	604.4625
98.7000	657.7375
98.7100	623.3650
98.7200	631.1000
98.7300	604.4675
98.7400	657.7275
98.7500	666.6675
98.7600	551.2200
98.7700	533.3325
98.7800	547.7625
98.7900	550.0000
98.8000	550.0000
98.8100	535.5725
98.8200	533.3325
98.8300	634.3200
98.8400	549.0175
98.8500	576.6100
98.8600	583.3325
98.8700	554.4850
98.8800	650.9700
98.8900	594.5475
98.9000	511.2175
98.9100	543.2675
98.9200	434.6200
98.9300	402.2450
98.9400	544.2150
98.9500	595.5100
98.9600	527.8975
98.9700	545.5075
98.9800	535.5800
98.9900	562.1725
99.0000	595.5050
99.0100	527.9075
99.0200	559.9225
99.0300	523.4125
99.0400	516.6675
99.0500	632.0050
99.0600	563.4975
99.0700	449.0850
99.0800	462.1650
99.0900	596.4100
99.1000	602.2500
99.1100	643.2450
99.1200	635.5850
99.1300	647.7475
99.1400	664.4150
99.1500	681.0800
99.1600	654.5050
99.1700	592.3450
99.1800	511.2650
99.1900	485.5875
99.2000	454.5075
99.2100	522.0650
99.2200	605.3975
99.2300	573.4300
99.2400	566.6675
99.2500	581.0800
99.2600	568.9225
99.2700	609.9025
99.2800	587.8425
99.2900	640.9800
99.3000	693.2350
99.3100	656.7675
99.3200	577.9450
99.3300	566.6675
99.3400	624.3100
99.3500	618.9225
99.3600	674.3100
99.3700	740.9750
99.3800	692.3575
99.3900	611.2825
99.4000	499.1275
99.4100	540.9750
99.4200	665.2825
99.4300	582.4625
99.4400	552.2575
99.4500	650.8700
99.4600	681.0775
99.4700	582.4625
99.4800	523.4375
99.4900	487.8475
99.5000	613.0225
99.5100	633.3325
99.5200	647.7425
99.5300	534.7200
99.5400	531.0775
99.5500	590.9725
99.5600	600.0000
99.5700	556.7700
99.5800	578.8200
99.5900	669.7950
99.6000	568.0500
99.6100	506.7700
99.6200	557.6425
99.6300	581.0775
99.6400	482.4600
99.6500	553.1300
99.6600	725.1850
99.6700	750.0000
99.6800	706.7675
99.6900	613.5325
99.7000	715.2900
99.7100	776.5675
99.7200	610.3950
99.7300	511.2750
99.7400	557.6475
99.7500	581.0775
99.7600	669.8075
99.7700	740.9825
99.7800	663.5250
99.7900	621.1750
99.8000	645.4925
99.8100	635.5875
99.8200	546.8550
99.8300	461.2650
99.8400	594.1375
99.8500	674.3225
99.8600	640.0900
99.8700	662.1625
99.8800	681.0800
99.8900	625.6750
99.9000	602.2525
99.9100	643.2450
99.9200	606.7525
99.9300	600.0000
99.9400	787.4075
99.9500	773.4175
99.9600	737.8325
99.9700	733.3325
99.9800	733.3325
99.9900	733.3325
100.0000	733.3325
