*FILE_COMMENT	""
*FILE_MD5	""
*FILE_MEMO	"Nifilterin"
*FILE_OPERATOR	"Administrator"
*FILE_PACKAGE_NAME	""
*FILE_PART_ID	"GeneralMeasurement"
*FILE_SAMPLE	"KCl"
*FILE_SYSTEM_NAME	"MiniFlex"
*FILE_TYPE	"RAS_RAW"
*FILE_USERGROUP	"Administrators"
*FILE_VERSION	"1"
*HW_ATTACHMENT_NAME_INTERNAL	"StandardSampleHolder"
*HW_COUNTER_ID-0	"CUT0025"
*HW_COUNTER_ID-2	"CMC0020"
*HW_COUNTER_MONOCHRO_ID	"CMC0020"
*HW_COUNTER_MONOCHRO_NAME	"None"
*HW_COUNTER_MONOCHRO_NAME_INTERNAL	"None"
*HW_COUNTER_NAME_INTERNAL	"DteX100"
*HW_COUNTER_NAME-0	"DteX100"
*HW_COUNTER_NAME-1	"None"
*HW_COUNTER_NAME-2	"None"
*HW_COUNTER_PIXEL_SIZE	"0.1"
*HW_COUNTER_SELECT_NAME	"DteX100"
*HW_GONIOMETER_ID	"GON0021"
*HW_GONIOMETER_NAME	"Standard"
*HW_GONIOMETER_NAME_INTERNAL	"Standard"
*HW_GONIOMETER_RADIUS-0	"90.0"
*HW_GONIOMETER_RADIUS-1	"114.0"
*HW_GONIOMETER_RADIUS-2	"91.5"
*HW_GONIOMETER_RADIUS-3	"150.0"
*HW_GONIOMETER_RADIUS-4	"103.4"
*HW_GONIOMETER_RADIUS-5	"150.0"
*HW_GONIOMETER_RADIUS-6	"46.6"
*HW_GONIOMETER_RADIUS-7	"150.0"
*HW_I_CBO_ID	"CBO0020"
*HW_I_CBO_NAME	"No_unit"
*HW_I_CBO_NAME_INTERNAL	"No_unit"
*HW_I_MONOCHRO_NAME_INTERNAL	"Manual"
*HW_I_OPT_ID-1	"CBO0020"
*HW_I_PRIMARY_NAME_INTERNAL	"No_unit"
*HW_I_SLIT_NAME_INTERNAL	"Manual"
*HW_R_ATTENUATER_AUTOMODE	"0"
*HW_R_ATTENUATER_ID	"ATN0020"
*HW_R_ATTENUATER_NAME	"No_unit"
*HW_R_ATTENUATOR_NAME_INTERNAL	"No_unit"
*HW_R_OPT_ID-1	"RCR0023"
*HW_R_OPT_ID-4	"ATN0020"
*HW_R_ROD_ID	"RCR0023"
*HW_R_ROD_NAME	"No_unit"
*HW_R_ROD_NAME_INTERNAL	"No_unit"
*HW_R_RPS_NAME_INTERNAL	"Manual"
*HW_R_RS_NAME_INTERNAL	"Manual"
*HW_R_SS_NAME_INTERNAL	"Manual"
*HW_SAMPLE_HOLDER_NAME_INTERNAL	"None"
*HW_SAMPLE_NAME	"None"
*HW_SAMPLE_NAME_INTERNAL	"None"
*HW_SAMPLE_PLATE_NAME	"None"
*HW_SAMPLE_PLATE_NAME_INTERNAL	"None"
*HW_SAMPLE_SPACER_NAME	"None"
*HW_SAMPLE_SPACER_NAME_INTERNAL	"None"
*HW_USERINFO_CATALOG_NO	""
*HW_USERINFO_INSTRUMENT_ID	""
*HW_USERINFO_INSTRUMENT_NAME	""
*HW_USERINFO_INSTRUMENT_NO	""
*HW_USERINFO_MODEL	""
*HW_USERINFO_ORDER_NO	""
*HW_USERINFO_SERIAL_NO	""
*HW_USERINFO_VERIFY_INSTRUMENT_ID	"00-07-fe-03-07-9c"
*HW_VER_RCD_COUNTER_UNIT	"N/A"
*HW_VER_RCD_CPU	"10.1.3"
*HW_VER_RCD_FPGA	"4.0.4"
*HW_VER_RCD_GONIO_UNIT	"0.0.0"
*HW_VER_RCD_INCIDENT_UNIT	"0.0.0"
*HW_VER_RCD_RECEIVING_UNIT	"0.0.0"
*HW_VER_RCD_TYPE	"RINCII"
*HW_VER_XGC_CPU	"10.1.3"
*HW_VER_XGC_CW	"5.5.6"
*HW_VER_XGC_HV	"5.5.6"
*HW_VER_XGC_RS1	"5.5.6"
*HW_VER_XGC_RS2	"N/A"
*HW_VER_XGC_RT	"N/A"
*HW_VER_XGC_TYPE	"RINCII"
*HW_XG_CURRENT_UNIT	"mA"
*HW_XG_FOCUS	"0.4mm x 12mm"
*HW_XG_FOCUS_TYPE	"LongFineToshiba"
*HW_XG_TARGET_ATOMIC_NUMBER	"29"
*HW_XG_TARGET_NAME	"Cu"
*HW_XG_TYPE	"Hermetic"
*HW_XG_VOLTAGE_UNIT	"kV"
*HW_XG_WAVE_LENGTH_ALPHA1	"1.540593"
*HW_XG_WAVE_LENGTH_ALPHA2	"1.544414"
*HW_XG_WAVE_LENGTH_BETA	"1.392246"
*HW_XG_WAVE_LENGTH_UNIT	"Angstrom"
*MEAS_COND_AXIS_NAME_INTERNAL-0	"TwoThetaTheta"
*MEAS_COND_AXIS_NAME_INTERNAL-1	"IncidentSollerSlit"
*MEAS_COND_AXIS_NAME_INTERNAL-10	"ReceivingSlitBox1"
*MEAS_COND_AXIS_NAME_INTERNAL-11	"ReceivingSlitBox1"
*MEAS_COND_AXIS_NAME_INTERNAL-12	"Filter"
*MEAS_COND_AXIS_NAME_INTERNAL-13	"ReceivingSollerSlit"
*MEAS_COND_AXIS_NAME_INTERNAL-14	"ReceivingSlitBox2"
*MEAS_COND_AXIS_NAME_INTERNAL-15	"ReceivingSlitBox2"
*MEAS_COND_AXIS_NAME_INTERNAL-16	"ReceivingSlitBox2"
*MEAS_COND_AXIS_NAME_INTERNAL-17	"PHA"
*MEAS_COND_AXIS_NAME_INTERNAL-18	"RS3"
*MEAS_COND_AXIS_NAME_INTERNAL-19	"Target_TargetTime"
*MEAS_COND_AXIS_NAME_INTERNAL-2	"IncidentSlitBox"
*MEAS_COND_AXIS_NAME_INTERNAL-20	"Target_XrayOnTime"
*MEAS_COND_AXIS_NAME_INTERNAL-21	"Target_IG"
*MEAS_COND_AXIS_NAME_INTERNAL-22	"Target_GP"
*MEAS_COND_AXIS_NAME_INTERNAL-23	"Target_FC"
*MEAS_COND_AXIS_NAME_INTERNAL-24	"HVPS_Bias"
*MEAS_COND_AXIS_NAME_INTERNAL-25	"HVPS_HVPSTime"
*MEAS_COND_AXIS_NAME_INTERNAL-26	"HVPS_Type1Time"
*MEAS_COND_AXIS_NAME_INTERNAL-27	"HVPS_Type2Time"
*MEAS_COND_AXIS_NAME_INTERNAL-28	"HVPS_Type3Time"
*MEAS_COND_AXIS_NAME_INTERNAL-29	"CW_IERTime"
*MEAS_COND_AXIS_NAME_INTERNAL-3	"IncidentSlitBox"
*MEAS_COND_AXIS_NAME_INTERNAL-30	"CW_WaterHose"
*MEAS_COND_AXIS_NAME_INTERNAL-31	"CW_CoolingWater"
*MEAS_COND_AXIS_NAME_INTERNAL-32	"CW_ECTime"
*MEAS_COND_AXIS_NAME_INTERNAL-33	"CW_Flow1"
*MEAS_COND_AXIS_NAME_INTERNAL-34	"CW_Temperature1"
*MEAS_COND_AXIS_NAME_INTERNAL-35	"CW_Pressure1"
*MEAS_COND_AXIS_NAME_INTERNAL-36	"CW_PressureIn"
*MEAS_COND_AXIS_NAME_INTERNAL-37	"CW_PressureOut"
*MEAS_COND_AXIS_NAME_INTERNAL-38	"CW_Flow2"
*MEAS_COND_AXIS_NAME_INTERNAL-39	"CW_Temperature2"
*MEAS_COND_AXIS_NAME_INTERNAL-4	"IncidentSlitBox"
*MEAS_COND_AXIS_NAME_INTERNAL-40	"CW_Pressure2"
*MEAS_COND_AXIS_NAME_INTERNAL-41	"RE_EnclosureTemp"
*MEAS_COND_AXIS_NAME_INTERNAL-42	"RE_EnclosureHummidity"
*MEAS_COND_AXIS_NAME_INTERNAL-43	"RE_CabinetTemp"
*MEAS_COND_AXIS_NAME_INTERNAL-44	"RE_RPTemp"
*MEAS_COND_AXIS_NAME_INTERNAL-45	"RE_ShutterAXrayOnTime"
*MEAS_COND_AXIS_NAME_INTERNAL-46	"RE_ShutterATimes"
*MEAS_COND_AXIS_NAME_INTERNAL-47	"RE_ShutterAOpenCloseTime"
*MEAS_COND_AXIS_NAME_INTERNAL-48	"RE_ShutterACloseOpenTime"
*MEAS_COND_AXIS_NAME_INTERNAL-49	"RE_ShutterBXrayOnTime"
*MEAS_COND_AXIS_NAME_INTERNAL-5	"IncidentAxdSlit"
*MEAS_COND_AXIS_NAME_INTERNAL-50	"RE_ShutterBTimes"
*MEAS_COND_AXIS_NAME_INTERNAL-51	"RE_ShutterBOpenCloseTime"
*MEAS_COND_AXIS_NAME_INTERNAL-52	"RE_ShutterBCloseOpenTime"
*MEAS_COND_AXIS_NAME_INTERNAL-53	"RE_XrayWarningRamp"
*MEAS_COND_AXIS_NAME_INTERNAL-54	"RE_ShutterAInstallation"
*MEAS_COND_AXIS_NAME_INTERNAL-55	"RE_ShutterARamp"
*MEAS_COND_AXIS_NAME_INTERNAL-56	"RE_ShutterBInstallation"
*MEAS_COND_AXIS_NAME_INTERNAL-57	"RE_ShutterBRamp"
*MEAS_COND_AXIS_NAME_INTERNAL-58	"RE_ExtShutterCLS"
*MEAS_COND_AXIS_NAME_INTERNAL-59	"RE_ExtXrayOFF"
*MEAS_COND_AXIS_NAME_INTERNAL-6	"IncidentAxdSlit"
*MEAS_COND_AXIS_NAME_INTERNAL-60	"RE_ExtSafetyCircuit"
*MEAS_COND_AXIS_NAME_INTERNAL-61	"Version_CPU"
*MEAS_COND_AXIS_NAME_INTERNAL-62	"Version_RS1"
*MEAS_COND_AXIS_NAME_INTERNAL-63	"Version_RS2"
*MEAS_COND_AXIS_NAME_INTERNAL-64	"Version_HV"
*MEAS_COND_AXIS_NAME_INTERNAL-65	"Version_CW"
*MEAS_COND_AXIS_NAME_INTERNAL-66	"Version_RT"
*MEAS_COND_AXIS_NAME_INTERNAL-67	"IncidentPrimary"
*MEAS_COND_AXIS_NAME_INTERNAL-68	"IncidentMonochromator"
*MEAS_COND_AXIS_NAME_INTERNAL-69	"ReceivingOptics"
*MEAS_COND_AXIS_NAME_INTERNAL-7	"IncidentAxdSlit"
*MEAS_COND_AXIS_NAME_INTERNAL-70	"CounterMonochromatorKind"
*MEAS_COND_AXIS_NAME_INTERNAL-8	"Filter"
*MEAS_COND_AXIS_NAME_INTERNAL-9	"ReceivingSlitBox1"
*MEAS_COND_AXIS_NAME-0	"TwoThetaTheta"
*MEAS_COND_AXIS_NAME-1	"IncidentSollerSlit"
*MEAS_COND_AXIS_NAME-10	"ReceivingSlitBox1-_Axis"
*MEAS_COND_AXIS_NAME-11	"SlitSS"
*MEAS_COND_AXIS_NAME-12	"Filter"
*MEAS_COND_AXIS_NAME-13	"ReceivingSollerSlit"
*MEAS_COND_AXIS_NAME-14	"ReceivingSlitBox2"
*MEAS_COND_AXIS_NAME-15	"ReceivingSlitBox2-_Axis"
*MEAS_COND_AXIS_NAME-16	"SlitRS"
*MEAS_COND_AXIS_NAME-17	"PHA"
*MEAS_COND_AXIS_NAME-18	"RS3"
*MEAS_COND_AXIS_NAME-19	"Target_TargetTime"
*MEAS_COND_AXIS_NAME-2	"IncidentSlitBox"
*MEAS_COND_AXIS_NAME-20	"Target_XrayOnTime"
*MEAS_COND_AXIS_NAME-21	"Target_IG"
*MEAS_COND_AXIS_NAME-22	"Target_GP"
*MEAS_COND_AXIS_NAME-23	"Target_FC"
*MEAS_COND_AXIS_NAME-24	"HVPS_Bias"
*MEAS_COND_AXIS_NAME-25	"HVPS_HVPSTime"
*MEAS_COND_AXIS_NAME-26	"HVPS_Type1Time"
*MEAS_COND_AXIS_NAME-27	"HVPS_Type2Time"
*MEAS_COND_AXIS_NAME-28	"HVPS_Type3Time"
*MEAS_COND_AXIS_NAME-29	"CW_IERTime"
*MEAS_COND_AXIS_NAME-3	"IncidentSlitBox-_Axis"
*MEAS_COND_AXIS_NAME-30	"CW_WaterHose"
*MEAS_COND_AXIS_NAME-31	"CW_CoolingWater"
*MEAS_COND_AXIS_NAME-32	"CW_ECTime"
*MEAS_COND_AXIS_NAME-33	"CW_Flow1"
*MEAS_COND_AXIS_NAME-34	"CW_Temperature1"
*MEAS_COND_AXIS_NAME-35	"CW_Pressure1"
*MEAS_COND_AXIS_NAME-36	"CW_PressureIn"
*MEAS_COND_AXIS_NAME-37	"CW_PressureOut"
*MEAS_COND_AXIS_NAME-38	"CW_Flow2"
*MEAS_COND_AXIS_NAME-39	"CW_Temperature2"
*MEAS_COND_AXIS_NAME-4	"SlitDS"
*MEAS_COND_AXIS_NAME-40	"CW_Pressure2"
*MEAS_COND_AXIS_NAME-41	"RE_EnclosureTemp"
*MEAS_COND_AXIS_NAME-42	"RE_EnclosureHummidity"
*MEAS_COND_AXIS_NAME-43	"RE_CabinetTemp"
*MEAS_COND_AXIS_NAME-44	"RE_RPTemp"
*MEAS_COND_AXIS_NAME-45	"RE_ShutterAXrayOnTime"
*MEAS_COND_AXIS_NAME-46	"RE_ShutterATimes"
*MEAS_COND_AXIS_NAME-47	"RE_ShutterAOpenCloseTime"
*MEAS_COND_AXIS_NAME-48	"RE_ShutterACloseOpenTime"
*MEAS_COND_AXIS_NAME-49	"RE_ShutterBXrayOnTime"
*MEAS_COND_AXIS_NAME-5	"IncidentAxdSlit"
*MEAS_COND_AXIS_NAME-50	"RE_ShutterBTimes"
*MEAS_COND_AXIS_NAME-51	"RE_ShutterBOpenCloseTime"
*MEAS_COND_AXIS_NAME-52	"RE_ShutterBCloseOpenTime"
*MEAS_COND_AXIS_NAME-53	"RE_XrayWarningRamp"
*MEAS_COND_AXIS_NAME-54	"RE_ShutterAInstallation"
*MEAS_COND_AXIS_NAME-55	"RE_ShutterARamp"
*MEAS_COND_AXIS_NAME-56	"RE_ShutterBInstallation"
*MEAS_COND_AXIS_NAME-57	"RE_ShutterBRamp"
*MEAS_COND_AXIS_NAME-58	"RE_ExtShutterCLS"
*MEAS_COND_AXIS_NAME-59	"RE_ExtXrayOFF"
*MEAS_COND_AXIS_NAME-6	"LLS"
*MEAS_COND_AXIS_NAME-60	"RE_ExtSafetyCircuit"
*MEAS_COND_AXIS_NAME-61	"Version_CPU"
*MEAS_COND_AXIS_NAME-62	"Version_RS1"
*MEAS_COND_AXIS_NAME-63	"Version_RS2"
*MEAS_COND_AXIS_NAME-64	"Version_HV"
*MEAS_COND_AXIS_NAME-65	"Version_CW"
*MEAS_COND_AXIS_NAME-66	"Version_RT"
*MEAS_COND_AXIS_NAME-67	"IncidentPrimary"
*MEAS_COND_AXIS_NAME-68	"IncidentMonochromator"
*MEAS_COND_AXIS_NAME-69	"ReceivingOptics"
*MEAS_COND_AXIS_NAME-7	"DHLSlit"
*MEAS_COND_AXIS_NAME-70	"CounterMonochromatorKind"
*MEAS_COND_AXIS_NAME-8	"Filter"
*MEAS_COND_AXIS_NAME-9	"ReceivingSlitBox1"
*MEAS_COND_AXIS_OFFSET-0	"0"
*MEAS_COND_AXIS_OFFSET-1	"0"
*MEAS_COND_AXIS_OFFSET-10	"0"
*MEAS_COND_AXIS_OFFSET-11	"0"
*MEAS_COND_AXIS_OFFSET-12	"0"
*MEAS_COND_AXIS_OFFSET-13	"0"
*MEAS_COND_AXIS_OFFSET-14	"0"
*MEAS_COND_AXIS_OFFSET-15	"0"
*MEAS_COND_AXIS_OFFSET-16	"0"
*MEAS_COND_AXIS_OFFSET-17	"0"
*MEAS_COND_AXIS_OFFSET-18	"0"
*MEAS_COND_AXIS_OFFSET-19	"0"
*MEAS_COND_AXIS_OFFSET-2	"0"
*MEAS_COND_AXIS_OFFSET-20	"0"
*MEAS_COND_AXIS_OFFSET-21	"0"
*MEAS_COND_AXIS_OFFSET-22	"0"
*MEAS_COND_AXIS_OFFSET-23	"0"
*MEAS_COND_AXIS_OFFSET-24	"0"
*MEAS_COND_AXIS_OFFSET-25	"0"
*MEAS_COND_AXIS_OFFSET-26	"0"
*MEAS_COND_AXIS_OFFSET-27	"0"
*MEAS_COND_AXIS_OFFSET-28	"0"
*MEAS_COND_AXIS_OFFSET-29	"0"
*MEAS_COND_AXIS_OFFSET-3	"0"
*MEAS_COND_AXIS_OFFSET-30	"0"
*MEAS_COND_AXIS_OFFSET-31	"0"
*MEAS_COND_AXIS_OFFSET-32	"0"
*MEAS_COND_AXIS_OFFSET-33	"0"
*MEAS_COND_AXIS_OFFSET-34	"0"
*MEAS_COND_AXIS_OFFSET-35	"0"
*MEAS_COND_AXIS_OFFSET-36	"0"
*MEAS_COND_AXIS_OFFSET-37	"0"
*MEAS_COND_AXIS_OFFSET-38	"0"
*MEAS_COND_AXIS_OFFSET-39	"0"
*MEAS_COND_AXIS_OFFSET-4	"0"
*MEAS_COND_AXIS_OFFSET-40	"0"
*MEAS_COND_AXIS_OFFSET-41	"0"
*MEAS_COND_AXIS_OFFSET-42	"0"
*MEAS_COND_AXIS_OFFSET-43	"0"
*MEAS_COND_AXIS_OFFSET-44	"0"
*MEAS_COND_AXIS_OFFSET-45	"0"
*MEAS_COND_AXIS_OFFSET-46	"0"
*MEAS_COND_AXIS_OFFSET-47	"0"
*MEAS_COND_AXIS_OFFSET-48	"0"
*MEAS_COND_AXIS_OFFSET-49	"0"
*MEAS_COND_AXIS_OFFSET-5	"0"
*MEAS_COND_AXIS_OFFSET-50	"0"
*MEAS_COND_AXIS_OFFSET-51	"0"
*MEAS_COND_AXIS_OFFSET-52	"0"
*MEAS_COND_AXIS_OFFSET-53	"0"
*MEAS_COND_AXIS_OFFSET-54	"0"
*MEAS_COND_AXIS_OFFSET-55	"0"
*MEAS_COND_AXIS_OFFSET-56	"0"
*MEAS_COND_AXIS_OFFSET-57	"0"
*MEAS_COND_AXIS_OFFSET-58	"0"
*MEAS_COND_AXIS_OFFSET-59	"0"
*MEAS_COND_AXIS_OFFSET-6	"0"
*MEAS_COND_AXIS_OFFSET-60	"0"
*MEAS_COND_AXIS_OFFSET-61	"0"
*MEAS_COND_AXIS_OFFSET-62	"0"
*MEAS_COND_AXIS_OFFSET-63	"0"
*MEAS_COND_AXIS_OFFSET-64	"0"
*MEAS_COND_AXIS_OFFSET-65	"0"
*MEAS_COND_AXIS_OFFSET-66	"0"
*MEAS_COND_AXIS_OFFSET-67	"0"
*MEAS_COND_AXIS_OFFSET-68	"0"
*MEAS_COND_AXIS_OFFSET-69	"0"
*MEAS_COND_AXIS_OFFSET-7	"0"
*MEAS_COND_AXIS_OFFSET-70	"0"
*MEAS_COND_AXIS_OFFSET-8	"0"
*MEAS_COND_AXIS_OFFSET-9	"0"
*MEAS_COND_AXIS_POSITION-0	"12.0000"
*MEAS_COND_AXIS_POSITION-1	"Soller_slit_2.5deg"
*MEAS_COND_AXIS_POSITION-10	"8.0mm"
*MEAS_COND_AXIS_POSITION-11	"8.0mm"
*MEAS_COND_AXIS_POSITION-12	"K_beta_x1.5"
*MEAS_COND_AXIS_POSITION-13	"Soller_slit_2.5deg"
*MEAS_COND_AXIS_POSITION-14	"Open"
*MEAS_COND_AXIS_POSITION-15	"Open"
*MEAS_COND_AXIS_POSITION-16	"Open"
*MEAS_COND_AXIS_POSITION-17	"36"
*MEAS_COND_AXIS_POSITION-18	"Open"
*MEAS_COND_AXIS_POSITION-19	""
*MEAS_COND_AXIS_POSITION-2	"1.25deg"
*MEAS_COND_AXIS_POSITION-20	"24.250000"
*MEAS_COND_AXIS_POSITION-21	"0.000000"
*MEAS_COND_AXIS_POSITION-22	""
*MEAS_COND_AXIS_POSITION-23	"0.000000"
*MEAS_COND_AXIS_POSITION-24	"0.000000"
*MEAS_COND_AXIS_POSITION-25	""
*MEAS_COND_AXIS_POSITION-26	""
*MEAS_COND_AXIS_POSITION-27	""
*MEAS_COND_AXIS_POSITION-28	""
*MEAS_COND_AXIS_POSITION-29	"0.000000"
*MEAS_COND_AXIS_POSITION-3	"1.25deg"
*MEAS_COND_AXIS_POSITION-30	""
*MEAS_COND_AXIS_POSITION-31	""
*MEAS_COND_AXIS_POSITION-32	""
*MEAS_COND_AXIS_POSITION-33	"4.270000"
*MEAS_COND_AXIS_POSITION-34	"0.000000"
*MEAS_COND_AXIS_POSITION-35	"0.000000"
*MEAS_COND_AXIS_POSITION-36	""
*MEAS_COND_AXIS_POSITION-37	""
*MEAS_COND_AXIS_POSITION-38	"0.000000"
*MEAS_COND_AXIS_POSITION-39	"0.000000"
*MEAS_COND_AXIS_POSITION-4	"1.25deg"
*MEAS_COND_AXIS_POSITION-40	"0.000000"
*MEAS_COND_AXIS_POSITION-41	"0.000000"
*MEAS_COND_AXIS_POSITION-42	""
*MEAS_COND_AXIS_POSITION-43	"36.000000"
*MEAS_COND_AXIS_POSITION-44	""
*MEAS_COND_AXIS_POSITION-45	""
*MEAS_COND_AXIS_POSITION-46	""
*MEAS_COND_AXIS_POSITION-47	""
*MEAS_COND_AXIS_POSITION-48	""
*MEAS_COND_AXIS_POSITION-49	""
*MEAS_COND_AXIS_POSITION-5	"10mm"
*MEAS_COND_AXIS_POSITION-50	"94.000000"
*MEAS_COND_AXIS_POSITION-51	"33.000000"
*MEAS_COND_AXIS_POSITION-52	"23.000000"
*MEAS_COND_AXIS_POSITION-53	""
*MEAS_COND_AXIS_POSITION-54	"OFF"
*MEAS_COND_AXIS_POSITION-55	""
*MEAS_COND_AXIS_POSITION-56	"ON"
*MEAS_COND_AXIS_POSITION-57	""
*MEAS_COND_AXIS_POSITION-58	""
*MEAS_COND_AXIS_POSITION-59	""
*MEAS_COND_AXIS_POSITION-6	"10mm"
*MEAS_COND_AXIS_POSITION-60	"CLOSE"
*MEAS_COND_AXIS_POSITION-61	"10.1.3"
*MEAS_COND_AXIS_POSITION-62	"5.5.6"
*MEAS_COND_AXIS_POSITION-63	"N/A"
*MEAS_COND_AXIS_POSITION-64	"5.5.6"
*MEAS_COND_AXIS_POSITION-65	"5.5.6"
*MEAS_COND_AXIS_POSITION-66	"N/A"
*MEAS_COND_AXIS_POSITION-67	"No_unit"
*MEAS_COND_AXIS_POSITION-68	"Manual"
*MEAS_COND_AXIS_POSITION-69	"No_unit"
*MEAS_COND_AXIS_POSITION-7	"10mm"
*MEAS_COND_AXIS_POSITION-70	"None"
*MEAS_COND_AXIS_POSITION-8	"None"
*MEAS_COND_AXIS_POSITION-9	"8.0mm"
*MEAS_COND_AXIS_RESOLUTION-0	"0.0025"
*MEAS_COND_AXIS_RESOLUTION-1	""
*MEAS_COND_AXIS_RESOLUTION-10	""
*MEAS_COND_AXIS_RESOLUTION-11	""
*MEAS_COND_AXIS_RESOLUTION-12	""
*MEAS_COND_AXIS_RESOLUTION-13	""
*MEAS_COND_AXIS_RESOLUTION-14	""
*MEAS_COND_AXIS_RESOLUTION-15	""
*MEAS_COND_AXIS_RESOLUTION-16	""
*MEAS_COND_AXIS_RESOLUTION-17	"1"
*MEAS_COND_AXIS_RESOLUTION-18	"0.1"
*MEAS_COND_AXIS_RESOLUTION-19	"0.01"
*MEAS_COND_AXIS_RESOLUTION-2	""
*MEAS_COND_AXIS_RESOLUTION-20	"0.010000"
*MEAS_COND_AXIS_RESOLUTION-21	"1"
*MEAS_COND_AXIS_RESOLUTION-22	"1"
*MEAS_COND_AXIS_RESOLUTION-23	"0.01"
*MEAS_COND_AXIS_RESOLUTION-24	"1"
*MEAS_COND_AXIS_RESOLUTION-25	"0.01"
*MEAS_COND_AXIS_RESOLUTION-26	"0.01"
*MEAS_COND_AXIS_RESOLUTION-27	"0.01"
*MEAS_COND_AXIS_RESOLUTION-28	"0.01"
*MEAS_COND_AXIS_RESOLUTION-29	"0.010000"
*MEAS_COND_AXIS_RESOLUTION-3	""
*MEAS_COND_AXIS_RESOLUTION-30	"0.01"
*MEAS_COND_AXIS_RESOLUTION-31	"0.01"
*MEAS_COND_AXIS_RESOLUTION-32	"1"
*MEAS_COND_AXIS_RESOLUTION-33	"0.100000"
*MEAS_COND_AXIS_RESOLUTION-34	"1.000000"
*MEAS_COND_AXIS_RESOLUTION-35	"0.010000"
*MEAS_COND_AXIS_RESOLUTION-36	"0.01"
*MEAS_COND_AXIS_RESOLUTION-37	"0.01"
*MEAS_COND_AXIS_RESOLUTION-38	"0.1"
*MEAS_COND_AXIS_RESOLUTION-39	"1"
*MEAS_COND_AXIS_RESOLUTION-4	""
*MEAS_COND_AXIS_RESOLUTION-40	"0.01"
*MEAS_COND_AXIS_RESOLUTION-41	"1.000000"
*MEAS_COND_AXIS_RESOLUTION-42	"1"
*MEAS_COND_AXIS_RESOLUTION-43	"1.000000"
*MEAS_COND_AXIS_RESOLUTION-44	"1"
*MEAS_COND_AXIS_RESOLUTION-45	"0.01"
*MEAS_COND_AXIS_RESOLUTION-46	"1"
*MEAS_COND_AXIS_RESOLUTION-47	"1"
*MEAS_COND_AXIS_RESOLUTION-48	"1"
*MEAS_COND_AXIS_RESOLUTION-49	"0.01"
*MEAS_COND_AXIS_RESOLUTION-5	""
*MEAS_COND_AXIS_RESOLUTION-50	"1.000000"
*MEAS_COND_AXIS_RESOLUTION-51	"1.000000"
*MEAS_COND_AXIS_RESOLUTION-52	"1.000000"
*MEAS_COND_AXIS_RESOLUTION-53	"-"
*MEAS_COND_AXIS_RESOLUTION-54	"-"
*MEAS_COND_AXIS_RESOLUTION-55	"-"
*MEAS_COND_AXIS_RESOLUTION-56	"1.000000"
*MEAS_COND_AXIS_RESOLUTION-57	"-"
*MEAS_COND_AXIS_RESOLUTION-58	"-"
*MEAS_COND_AXIS_RESOLUTION-59	"-"
*MEAS_COND_AXIS_RESOLUTION-6	""
*MEAS_COND_AXIS_RESOLUTION-60	"1.000000"
*MEAS_COND_AXIS_RESOLUTION-61	"1.000000"
*MEAS_COND_AXIS_RESOLUTION-62	"1.000000"
*MEAS_COND_AXIS_RESOLUTION-63	"1.000000"
*MEAS_COND_AXIS_RESOLUTION-64	"1.000000"
*MEAS_COND_AXIS_RESOLUTION-65	"1.000000"
*MEAS_COND_AXIS_RESOLUTION-66	"1.000000"
*MEAS_COND_AXIS_RESOLUTION-7	""
*MEAS_COND_AXIS_RESOLUTION-8	""
*MEAS_COND_AXIS_RESOLUTION-9	""
*MEAS_COND_AXIS_STATE-0	"Scan"
*MEAS_COND_AXIS_STATE-1	"Fixed"
*MEAS_COND_AXIS_STATE-10	"Fixed"
*MEAS_COND_AXIS_STATE-11	"Fixed"
*MEAS_COND_AXIS_STATE-12	"Fixed"
*MEAS_COND_AXIS_STATE-13	"Fixed"
*MEAS_COND_AXIS_STATE-14	"Fixed"
*MEAS_COND_AXIS_STATE-15	"Fixed"
*MEAS_COND_AXIS_STATE-16	"Fixed"
*MEAS_COND_AXIS_STATE-17	"Fixed"
*MEAS_COND_AXIS_STATE-18	"Fixed"
*MEAS_COND_AXIS_STATE-19	"Fixed"
*MEAS_COND_AXIS_STATE-2	"Fixed"
*MEAS_COND_AXIS_STATE-20	"Fixed"
*MEAS_COND_AXIS_STATE-21	"Fixed"
*MEAS_COND_AXIS_STATE-22	"Fixed"
*MEAS_COND_AXIS_STATE-23	"Fixed"
*MEAS_COND_AXIS_STATE-24	"Fixed"
*MEAS_COND_AXIS_STATE-25	"Fixed"
*MEAS_COND_AXIS_STATE-26	"Fixed"
*MEAS_COND_AXIS_STATE-27	"Fixed"
*MEAS_COND_AXIS_STATE-28	"Fixed"
*MEAS_COND_AXIS_STATE-29	"Fixed"
*MEAS_COND_AXIS_STATE-3	"Fixed"
*MEAS_COND_AXIS_STATE-30	"Fixed"
*MEAS_COND_AXIS_STATE-31	"Fixed"
*MEAS_COND_AXIS_STATE-32	"Fixed"
*MEAS_COND_AXIS_STATE-33	"Fixed"
*MEAS_COND_AXIS_STATE-34	"Fixed"
*MEAS_COND_AXIS_STATE-35	"Fixed"
*MEAS_COND_AXIS_STATE-36	"Fixed"
*MEAS_COND_AXIS_STATE-37	"Fixed"
*MEAS_COND_AXIS_STATE-38	"Fixed"
*MEAS_COND_AXIS_STATE-39	"Fixed"
*MEAS_COND_AXIS_STATE-4	"Fixed"
*MEAS_COND_AXIS_STATE-40	"Fixed"
*MEAS_COND_AXIS_STATE-41	"Fixed"
*MEAS_COND_AXIS_STATE-42	"Fixed"
*MEAS_COND_AXIS_STATE-43	"Fixed"
*MEAS_COND_AXIS_STATE-44	"Fixed"
*MEAS_COND_AXIS_STATE-45	"Fixed"
*MEAS_COND_AXIS_STATE-46	"Fixed"
*MEAS_COND_AXIS_STATE-47	"Fixed"
*MEAS_COND_AXIS_STATE-48	"Fixed"
*MEAS_COND_AXIS_STATE-49	"Fixed"
*MEAS_COND_AXIS_STATE-5	"Fixed"
*MEAS_COND_AXIS_STATE-50	"Fixed"
*MEAS_COND_AXIS_STATE-51	"Fixed"
*MEAS_COND_AXIS_STATE-52	"Fixed"
*MEAS_COND_AXIS_STATE-53	"Fixed"
*MEAS_COND_AXIS_STATE-54	"Fixed"
*MEAS_COND_AXIS_STATE-55	"Fixed"
*MEAS_COND_AXIS_STATE-56	"Fixed"
*MEAS_COND_AXIS_STATE-57	"Fixed"
*MEAS_COND_AXIS_STATE-58	"Fixed"
*MEAS_COND_AXIS_STATE-59	"Fixed"
*MEAS_COND_AXIS_STATE-6	"Fixed"
*MEAS_COND_AXIS_STATE-60	"Fixed"
*MEAS_COND_AXIS_STATE-61	"Fixed"
*MEAS_COND_AXIS_STATE-62	"Fixed"
*MEAS_COND_AXIS_STATE-63	"Fixed"
*MEAS_COND_AXIS_STATE-64	"Fixed"
*MEAS_COND_AXIS_STATE-65	"Fixed"
*MEAS_COND_AXIS_STATE-66	"Fixed"
*MEAS_COND_AXIS_STATE-7	"Fixed"
*MEAS_COND_AXIS_STATE-8	"Fixed"
*MEAS_COND_AXIS_STATE-9	"Fixed"
*MEAS_COND_AXIS_UNIT-0	"deg"
*MEAS_COND_AXIS_UNIT-1	""
*MEAS_COND_AXIS_UNIT-10	""
*MEAS_COND_AXIS_UNIT-11	""
*MEAS_COND_AXIS_UNIT-12	""
*MEAS_COND_AXIS_UNIT-13	""
*MEAS_COND_AXIS_UNIT-14	""
*MEAS_COND_AXIS_UNIT-15	""
*MEAS_COND_AXIS_UNIT-16	""
*MEAS_COND_AXIS_UNIT-17	"div"
*MEAS_COND_AXIS_UNIT-18	""
*MEAS_COND_AXIS_UNIT-19	"H"
*MEAS_COND_AXIS_UNIT-2	""
*MEAS_COND_AXIS_UNIT-20	"H"
*MEAS_COND_AXIS_UNIT-21	"mV"
*MEAS_COND_AXIS_UNIT-22	"V"
*MEAS_COND_AXIS_UNIT-23	"V"
*MEAS_COND_AXIS_UNIT-24	"V"
*MEAS_COND_AXIS_UNIT-25	"H"
*MEAS_COND_AXIS_UNIT-26	"H"
*MEAS_COND_AXIS_UNIT-27	"H"
*MEAS_COND_AXIS_UNIT-28	"H"
*MEAS_COND_AXIS_UNIT-29	"H"
*MEAS_COND_AXIS_UNIT-3	""
*MEAS_COND_AXIS_UNIT-30	"H"
*MEAS_COND_AXIS_UNIT-31	"H"
*MEAS_COND_AXIS_UNIT-32	"uS/m"
*MEAS_COND_AXIS_UNIT-33	"L/min"
*MEAS_COND_AXIS_UNIT-34	"degree"
*MEAS_COND_AXIS_UNIT-35	"MPa"
*MEAS_COND_AXIS_UNIT-36	"MPa"
*MEAS_COND_AXIS_UNIT-37	"MPa"
*MEAS_COND_AXIS_UNIT-38	"L/min"
*MEAS_COND_AXIS_UNIT-39	"C"
*MEAS_COND_AXIS_UNIT-4	""
*MEAS_COND_AXIS_UNIT-40	"MPa"
*MEAS_COND_AXIS_UNIT-41	"degree"
*MEAS_COND_AXIS_UNIT-42	"percent"
*MEAS_COND_AXIS_UNIT-43	"degree"
*MEAS_COND_AXIS_UNIT-44	"C"
*MEAS_COND_AXIS_UNIT-45	"H"
*MEAS_COND_AXIS_UNIT-46	"time"
*MEAS_COND_AXIS_UNIT-47	"msec"
*MEAS_COND_AXIS_UNIT-48	"msec"
*MEAS_COND_AXIS_UNIT-49	"H"
*MEAS_COND_AXIS_UNIT-5	""
*MEAS_COND_AXIS_UNIT-50	"times"
*MEAS_COND_AXIS_UNIT-51	"msec"
*MEAS_COND_AXIS_UNIT-52	"msec"
*MEAS_COND_AXIS_UNIT-53	"-"
*MEAS_COND_AXIS_UNIT-54	"-"
*MEAS_COND_AXIS_UNIT-55	"-"
*MEAS_COND_AXIS_UNIT-56	""
*MEAS_COND_AXIS_UNIT-57	"-"
*MEAS_COND_AXIS_UNIT-58	"-"
*MEAS_COND_AXIS_UNIT-59	"-"
*MEAS_COND_AXIS_UNIT-6	""
*MEAS_COND_AXIS_UNIT-60	""
*MEAS_COND_AXIS_UNIT-61	""
*MEAS_COND_AXIS_UNIT-62	""
*MEAS_COND_AXIS_UNIT-63	""
*MEAS_COND_AXIS_UNIT-64	""
*MEAS_COND_AXIS_UNIT-65	""
*MEAS_COND_AXIS_UNIT-66	""
*MEAS_COND_AXIS_UNIT-67	""
*MEAS_COND_AXIS_UNIT-68	""
*MEAS_COND_AXIS_UNIT-69	""
*MEAS_COND_AXIS_UNIT-7	""
*MEAS_COND_AXIS_UNIT-70	""
*MEAS_COND_AXIS_UNIT-8	""
*MEAS_COND_AXIS_UNIT-9	""
*MEAS_COND_COUNTER_ADJUSTMENTMETHOD	""
*MEAS_COND_COUNTER_CENTER_X	"0.5"
*MEAS_COND_COUNTER_CENTER_Y	"63.92"
*MEAS_COND_COUNTER_COUNTMODE	"Differential"
*MEAS_COND_COUNTER_DEADTIMECORRECTION	"Enabled"
*MEAS_COND_COUNTER_DISTANCE	"150"
*MEAS_COND_COUNTER_ENERGYMODE	"Standard"
*MEAS_COND_COUNTER_PHA_UNIT	"div"
*MEAS_COND_COUNTER_PHABASE	"36"
*MEAS_COND_COUNTER_PHAWINDOW	"26"
*MEAS_COND_COUNTER_PITCH_X	"20"
*MEAS_COND_COUNTER_PITCH_Y	"0.1"
*MEAS_COND_COUNTER_PITCHUNIT	"mm"
*MEAS_COND_COUNTER_VALIDWIDTH_X	"1"
*MEAS_COND_COUNTER_VALIDWIDTH_Y	"200"
*MEAS_COND_XG_CURRENT	"15"
*MEAS_COND_XG_VOLTAGE	"40"
*MEAS_COND_XG_WAVE_TYPE	"Ka"
*MEAS_DATA_COUNT	"9001"
*MEAS_SCAN_AXIS_X	"TwoThetaTheta"
*MEAS_SCAN_AXIS_X_INTERNAL	"TwoThetaTheta"
*MEAS_SCAN_END_TIME "04/26/2024 14:08:36"
*MEAS_SCAN_MODE	"CONTINUOUS"
*MEAS_SCAN_MODE_INTERNAL	"TDI_1D"
*MEAS_SCAN_RESOLUTION_X	"0.0025"
*MEAS_SCAN_SPEED	"10.0000"
*MEAS_SCAN_SPEED_UNIT	"deg/min"
*MEAS_SCAN_START	"10.0000"
*MEAS_SCAN_START_TIME "04/26/2024 13:58:56"
*MEAS_SCAN_STEP	"0.0100"
*MEAS_SCAN_STOP	"100.0000"
*MEAS_SCAN_UNEQUALY_SPACED	"False"
*MEAS_SCAN_UNIT_X	"deg"
*MEAS_SCAN_UNIT_Y	"cps"
#Intensity_unit=cps
#Attenuator_coefficient=1.0000
10.0000	2115.1050
10.0100	2411.6600
10.0200	2518.3250
10.0300	2505.2350
10.0400	2231.8900
10.0500	2081.4275
10.0600	2224.8350
10.0700	2286.9825
10.0800	2160.1850
10.0900	2108.0725
10.1000	2175.2950
10.1100	2098.3975
10.1200	2096.0925
10.1300	2200.7825
10.1400	2054.7450
10.1500	2114.1800
10.1600	2243.7225
10.1700	2177.0825
10.1800	2116.6675
10.1900	2129.0625
10.2000	2256.1725
10.2100	2299.7625
10.2200	2119.5625
10.2300	1997.0475
10.2400	2163.6775
10.2500	2445.5175
10.2600	2242.3575
10.2700	2328.8400
10.2800	2275.8775
10.2900	2204.4550
10.3000	2238.1750
10.3100	2107.8375
10.3200	2029.8525
10.3300	2155.0000
10.3400	2030.4300
10.3500	2021.6800
10.3600	2255.7550
10.3700	2322.3950
10.3800	2393.3125
10.3900	2491.4850
10.4000	2370.3350
10.4100	2061.2475
10.4200	2202.9250
10.4300	2392.9875
10.4400	2181.8550
10.4500	2684.9325
10.4600	2303.1250
10.4700	1984.4325
10.4800	2184.6925
10.4900	2216.2400
10.5000	2390.5725
10.5100	2286.0125
10.5200	2303.3300
10.5300	2152.6550
10.5400	2193.8950
10.5500	2307.4700
10.5600	2206.5350
10.5700	2284.6350
10.5800	2294.8250
10.5900	2229.4725
10.6000	2184.6150
10.6100	2202.5475
10.6200	2232.0650
10.6300	2214.1450
10.6400	2205.9050
10.6500	2479.5925
10.6600	2422.1675
10.6700	2287.0350
10.6800	2332.1050
10.6900	2299.5775
10.7000	2099.1150
10.7100	2301.2075
10.7200	2326.2725
10.7300	2427.3150
10.7400	2136.8950
10.7500	2183.3325
10.7600	2177.4650
10.7700	2121.0075
10.7800	2398.8400
10.7900	2370.6425
10.8000	2196.5600
10.8100	2140.8775
10.8200	2033.6700
10.8300	2285.8225
10.8400	2544.4000
10.8500	2459.9875
10.8600	2378.8400
10.8700	2544.5000
10.8800	2466.6675
10.8900	2449.2825
10.9000	2202.1600
10.9100	2242.9900
10.9200	2367.3400
10.9300	2148.1650
10.9400	2360.3500
10.9500	2268.7575
10.9600	2294.8050
10.9700	2208.4075
10.9800	2082.3075
10.9900	2073.7975
11.0000	2185.3575
11.0100	2214.6575
11.0200	2187.3275
11.0300	2247.0250
11.0400	2205.9100
11.0500	2283.3750
11.0600	2013.7525
11.0700	1978.2400
11.0800	2169.5400
11.0900	2215.7150
11.1000	2201.8875
11.1100	2238.0200
11.1200	2311.0850
11.1300	2209.2800
11.1400	2098.9150
11.1500	2373.0350
11.1600	2477.0125
11.1700	2371.1475
11.1800	2447.3325
11.1900	2395.5875
11.2000	2307.0350
11.2100	2128.1225
11.2200	2041.9500
11.2300	2207.6950
11.2400	2345.7600
11.2500	2262.4600
11.2600	2190.8425
11.2700	2326.7150
11.2800	2216.4100
11.2900	2525.1975
11.3000	2356.9875
11.3100	2169.0650
11.3200	2214.2875
11.3300	2168.2375
11.3400	2190.6500
11.3500	2005.4050
11.3600	2113.6050
11.3700	2047.7250
11.3800	2000.0000
11.3900	2003.7225
11.4000	2081.8575
11.4100	2044.8850
11.4200	1944.1875
11.4300	2187.6325
11.4400	2282.6225
11.4500	2268.0725
11.4600	2294.4325
11.4700	2163.9100
11.4800	2102.7275
11.4900	2163.9675
11.5000	2106.0125
11.5100	2253.3050
11.5200	2322.2150
11.5300	2044.1750
11.5400	1912.8025
11.5500	2243.4625
11.5600	2493.7375
11.5700	2342.6200
11.5800	2585.7825
11.5900	2637.2925
11.6000	2306.5800
11.6100	2477.4225
11.6200	2313.7450
11.6300	2238.5275
11.6400	2381.6225
11.6500	2329.9550
11.6600	2231.6650
11.6700	2181.6850
11.6800	2136.0425
11.6900	2211.8525
11.7000	2069.3075
11.7100	2146.8750
11.7200	2058.7350
11.7300	2340.9350
11.7400	2575.3375
11.7500	2312.7250
11.7600	2189.6475
11.7700	2403.8275
11.7800	2522.9600
11.7900	2156.4500
11.8000	1800.9150
11.8100	1844.5900
11.8200	2250.0000
11.8300	2250.4350
11.8400	2265.3800
11.8500	2213.7125
11.8600	2099.1700
11.8700	2063.8125
11.8800	1957.6125
11.8900	2268.6350
11.9000	2344.5900
11.9100	2116.6675
11.9200	2118.5275
11.9300	2199.6350
11.9400	2181.9025
11.9500	2114.5625
11.9600	2021.4775
11.9700	2253.0300
11.9800	2397.6950
11.9900	2282.0450
12.0000	2216.6675
12.0100	2218.5150
12.0200	2313.0550
12.0300	2116.9600
12.0400	2132.4725
12.0500	2081.9375
12.0600	2002.1775
12.0700	2137.3100
12.0800	2379.9800
12.0900	2168.4225
12.1000	2284.0650
12.1100	2330.2600
12.1200	2119.1875
12.1300	2301.7750
12.1400	2431.4000
12.1500	2282.7100
12.1600	2235.5375
12.1700	2415.3150
12.1800	2302.9750
12.1900	2564.5200
12.2000	2366.8375
12.2100	2381.1975
12.2200	2166.3525
12.2300	2132.5825
12.2400	2049.8575
12.2500	2032.9275
12.2600	1982.9475
12.2700	1934.0600
12.2800	2035.2675
12.2900	2317.0925
12.3000	2382.1425
12.3100	2183.2425
12.3200	2167.3450
12.3300	2300.2325
12.3400	2348.8750
12.3500	2083.9000
12.3600	2233.7225
12.3700	2349.4675
12.3800	2166.4600
12.3900	2083.1975
12.4000	2016.9600
12.4100	2200.1150
12.4200	2299.9150
12.4300	2183.3725
12.4400	2316.6475
12.4500	2216.7250
12.4600	2133.4200
12.4700	2133.3325
12.4800	2199.8725
12.4900	2299.7650
12.5000	2183.6575
12.5100	2233.1725
12.5200	2316.3625
12.5300	1984.7000
12.5400	2116.0625
12.5500	2199.5850
12.5600	2216.5775
12.5700	2216.6675
12.5800	1951.6800
12.5900	2314.1950
12.6000	2366.3075
12.6100	2184.7300
12.6200	2199.8650
12.6300	2018.2250
12.6400	2049.7025
12.6500	2016.9800
12.6600	2115.6850
12.6700	2116.6675
12.6800	2298.0350
12.6900	2151.6725
12.7000	2034.6875
12.7100	2395.5850
12.7200	2449.3750
12.7300	2400.6475
12.7400	2219.1175
12.7500	2101.6125
12.7600	2100.0000
12.7700	2428.4325
12.7800	2154.2925
12.7900	2133.5925
12.8000	2002.1375
12.8100	2081.9600
12.8200	2050.5650
12.8300	2082.7550
12.8400	2230.6600
12.8500	2216.9700
12.8600	2085.8275
12.8700	2148.7225
12.8800	2248.0400
12.8900	2266.3325
12.9000	2380.9425
12.9100	2236.4750
12.9200	2102.8525
12.9300	2018.4875
12.9400	2016.6675
12.9500	2195.8325
12.9600	2167.4400
12.9700	2199.2125
12.9800	2427.7150
12.9900	2205.7225
13.0000	2265.0025
13.0100	2396.6100
13.0200	2432.4700
13.0300	2157.4575
13.0400	2214.8825
13.0500	2378.7975
13.0600	2399.5400
13.0700	2059.8425
13.0800	2147.1425
13.0900	2133.8175
13.1000	2278.9125
13.1100	2331.8375
13.1200	2317.1725
13.1300	2348.9725
13.1400	2188.5450
13.1500	1957.4025
13.1600	1853.2175
13.1700	2075.7200
13.1800	1889.9500
13.1900	2044.4100
13.2000	2404.2050
13.2100	2030.4425
13.2200	2097.0925
13.2300	2083.9225
13.2400	2083.3325
13.2500	2147.5825
13.2600	1877.0675
13.2700	1995.0450
13.2800	2080.1975
13.2900	2051.2700
13.3000	2098.0750
13.3100	2292.2050
13.3200	2396.0575
13.3300	2367.9975
13.3400	2302.6900
13.3500	1916.3200
13.3600	2027.8325
13.3700	2193.0475
13.3800	2200.0000
13.3900	2136.1750
13.4000	2229.0250
13.4100	2185.5100
13.4200	2278.9350
13.4300	2012.5950
13.4400	2000.0000
13.4500	2000.0000
13.4600	1968.1950
13.4700	1966.6675
13.4800	1966.6675
13.4900	2077.8275
13.5000	2099.2050
13.5100	2195.1900
13.5200	2073.1425
13.5300	2034.9675
13.5400	2144.2275
13.5500	2308.3425
13.5600	2063.4425
13.5700	1986.7250
13.5800	1951.7100
13.5900	2139.6425
13.6000	2228.9800
13.6100	2138.6050
13.6200	2180.6750
13.6300	2293.7425
13.6400	2363.0600
13.6500	2224.8500
13.6600	2216.6675
13.6700	2295.3775
13.6800	2032.5150
13.6900	2111.0275
13.7000	2289.5750
13.7100	2111.4650
13.7200	2115.7025
13.7300	2195.1475
13.7400	2247.0650
13.7500	2140.2375
13.7600	2196.0250
13.7700	2200.0000
13.7800	2043.4275
13.7900	2315.0250
13.8000	2255.1250
13.8100	2218.7325
13.8200	2060.4025
13.8300	1815.7200
13.8400	2018.5525
13.8500	2158.1575
13.8600	2151.0725
13.8700	1978.5350
13.8800	1966.6675
13.8900	2200.2500
13.9000	2310.0525
13.9100	2083.3175
13.9200	2144.4100
13.9300	2258.7875
13.9400	2189.0000
13.9500	2074.6550
13.9600	2051.1500
13.9700	1956.9400
13.9800	1996.5075
13.9900	1907.0325
14.0000	2023.8925
14.0100	1971.4175
14.0200	2090.4350
14.0300	2254.6325
14.0400	2452.1325
14.0500	2234.9525
14.0600	2232.1075
14.0700	2079.0125
14.0800	2143.7875
14.0900	2242.4975
14.1000	2172.9575
14.1100	2120.4650
14.1200	2147.4525
14.1300	2150.0000
14.1400	2057.7375
14.1500	1773.3525
14.1600	1888.2525
14.1700	2022.8300
14.1800	1956.6050
14.1900	2057.3650
14.2000	2373.2700
14.2100	2308.0675
14.2200	2054.9700
14.2300	1834.3475
14.2400	2076.7450
14.2500	2008.2550
14.2600	2137.5475
14.2700	2226.3750
14.2800	2065.3950
14.2900	2172.0750
14.3000	1939.3100
14.3100	1992.8850
14.3200	2045.7075
14.3300	2110.9100
14.3400	2131.8875
14.3500	2133.3325
14.3600	2163.7425
14.3700	2197.0600
14.3800	2063.3050
14.3900	2004.4600
14.4000	2045.5175
14.4100	1943.8475
14.4200	2054.5850
14.4300	2112.1125
14.4400	2010.6825
14.4500	2196.7275
14.4600	2246.9175
14.4700	1993.0125
14.4800	1981.7750
14.4900	2119.2425
14.5000	2042.7750
14.5100	2048.4175
14.5200	1929.3825
14.5300	1992.0125
14.5400	2105.4300
14.5500	2026.3450
14.5600	2016.6675
14.5700	1881.3300
14.5800	1836.6075
14.5900	1998.5700
14.6000	1956.6125
14.6100	2010.0225
14.6200	2136.6475
14.6300	2179.9800
14.6400	2033.5175
14.6500	2121.4825
14.6600	2208.1625
14.6700	2216.6675
14.6800	1992.4200
14.6900	1966.6675
14.7000	2116.0050
14.7100	2267.6650
14.7200	1925.3075
14.7300	2196.4375
14.7400	2233.3325
14.7500	2203.5450
14.7600	2006.4875
14.7700	2102.3550
14.7800	2146.4050
14.7900	2075.6925
14.8000	2111.2275
14.8100	2131.5125
14.8200	1895.9325
14.8300	1925.9850
14.8400	2185.2975
14.8500	2187.0400
14.8600	1961.2525
14.8700	2140.4950
14.8800	2225.8225
14.8900	2307.2400
14.9000	2183.7075
14.9100	1900.8950
14.9200	1910.9375
14.9300	2034.6575
14.9400	2094.2225
14.9500	2158.9300
14.9600	2151.9425
14.9700	1973.4000
14.9800	2067.6675
14.9900	1906.9275
15.0000	1883.3325
15.0100	1971.4400
15.0200	2100.7425
15.0300	2043.3250
15.0400	2150.6125
15.0500	2137.3625
15.0600	1986.8950
15.0700	1922.7600
15.0800	2033.6875
15.0900	2079.2400
15.1000	2302.5050
15.1100	2114.2850
15.1200	1995.7625
15.1300	2143.7900
15.1400	2122.9300
15.1500	1956.3875
15.1600	2093.5225
15.1700	1942.0125
15.1800	2163.9550
15.1900	2112.7700
15.2000	2041.8800
15.2100	2004.2900
15.2200	2058.0550
15.2300	1965.1275
15.2400	1877.5125
15.2500	1866.6675
15.2600	2112.8475
15.2700	2164.4725
15.2800	1993.0875
15.2900	2010.0375
15.3000	2060.0125
15.3100	2095.5475
15.3200	1869.0850
15.3300	1833.3325
15.3400	1948.6600
15.3500	1851.4050
15.3600	1948.5300
15.3700	1865.9275
15.3800	1878.7650
15.3900	1955.2075
15.4000	2081.6000
15.4100	2114.3575
15.4200	1944.4625
15.4300	1988.3775
15.4400	2143.3400
15.4500	2080.7125
15.4600	2009.3975
15.4700	2114.4750
15.4800	2047.5275
15.4900	1990.4550
15.5000	1997.6175
15.5100	2114.2100
15.5200	1990.6525
15.5300	2023.7075
15.5400	1762.5525
15.5500	1759.3975
15.5600	2008.6650
15.5700	2092.6800
15.5800	2185.3125
15.5900	2143.1575
15.6000	2161.7375
15.6100	2195.0550
15.6200	2100.7000
15.6300	2040.8000
15.6400	2004.9950
15.6500	2127.4475
15.6600	2135.8475
15.6700	2006.0350
15.6800	2039.8775
15.6900	2092.3825
15.7000	2029.4025
15.7100	2087.2225
15.7200	2015.3825
15.7300	1929.5275
15.7400	2001.1850
15.7500	1946.2750
15.7600	1891.1250
15.7700	1897.3950
15.7800	2068.6375
15.7900	2071.9100
15.8000	2024.5575
15.8100	2002.6375
15.8200	2000.0000
15.8300	1761.8000
15.8400	1842.6975
15.8500	1880.6625
15.8600	1743.4650
15.8700	1758.6025
15.8800	2004.1575
15.8900	2050.0000
15.9000	1966.2800
15.9100	2019.7250
15.9200	2089.0800
15.9300	1988.5725
15.9400	1813.5450
15.9500	2131.1275
15.9600	1991.4500
15.9700	2061.1600
15.9800	2055.5600
15.9900	2230.4175
16.0000	1975.3975
16.0100	2138.4525
16.0200	1892.4150
16.0300	1957.9375
16.0400	2011.0075
16.0500	2030.4950
16.0600	2060.9725
16.0700	2066.6675
16.0800	1970.0450
16.0900	1839.6425
16.1000	1733.9500
16.1100	1882.0000
16.1200	1999.2825
16.1300	1824.0125
16.1400	1810.8375
16.1500	2036.5750
16.1600	2055.8625
16.1700	1981.3625
16.1800	1747.1600
16.1900	1933.0825
16.2000	1832.6075
16.2100	1827.3875
16.2200	1929.1325
16.2300	2032.0625
16.2400	1899.6450
16.2500	1975.9475
16.2600	2040.9550
16.2700	2022.7125
16.2800	2071.2075
16.2900	2096.9600
16.3000	2031.9100
16.3100	2016.6675
16.3200	1907.8575
16.3300	1856.1475
16.3400	1863.5850
16.3500	1866.6675
16.3600	1758.1275
16.3700	1814.6875
16.3800	1873.9850
16.3900	1883.3325
16.4000	1761.5300
16.4100	1855.0600
16.4200	2126.6325
16.4300	2007.7275
16.4400	1845.1700
16.4500	2005.5450
16.4600	2103.9300
16.4700	2008.8725
16.4800	1835.2100
16.4900	1759.6275
16.5000	1830.6925
16.5100	1809.6800
16.5200	1840.2950
16.5300	1809.7300
16.5400	1867.0750
16.5500	1963.7725
16.5600	1902.9450
16.5700	1896.7225
16.5800	2033.8075
16.5900	2053.2950
16.6000	1916.3625
16.6100	1883.3325
16.6200	1869.9875
16.6300	1786.6375
16.6400	1953.2825
16.6500	2013.3225
16.6600	2029.9800
16.6700	1873.6825
16.6800	1913.1075
16.6900	1827.0350
16.7000	1773.4425
16.7100	1594.1550
16.7200	1695.8775
16.7300	1932.1275
16.7400	1996.5775
16.7500	1907.3500
16.7600	1883.3325
16.7700	1870.1150
16.7800	1972.3475
16.7900	1933.9925
16.8000	1877.0875
16.8100	1879.8500
16.8200	2041.4450
16.8300	1964.8275
16.8400	1828.0625
16.8500	1655.3475
16.8600	1761.2250
16.8700	1839.4000
16.8800	1954.9975
16.8900	1957.1025
16.9000	1845.1400
16.9100	1855.9625
16.9200	1905.9375
16.9300	1772.7700
16.9400	1654.8950
16.9500	1724.7850
16.9600	1945.8375
16.9700	1960.8575
16.9800	1754.4200
16.9900	1673.9400
17.0000	1888.0300
17.0100	1910.9625
17.0200	1913.0050
17.0300	1968.6500
17.0400	2100.2150
17.0500	1951.6375
17.0600	2068.6075
17.0700	2000.0175
17.0800	1979.6200
17.0900	1866.8400
17.1000	1898.0100
17.1100	1890.8125
17.1200	1767.0725
17.1300	1952.7925
17.1400	2210.1775
17.1500	1995.9350
17.1600	1878.0175
17.1700	1995.4150
17.1800	1814.6100
17.1900	1750.0000
17.2000	1672.9075
17.2100	1829.7625
17.2200	1832.0075
17.2300	1906.4250
17.2400	1907.7050
17.2500	1797.5575
17.2600	1830.6500
17.2700	1862.7875
17.2800	1892.2250
17.2900	1989.3950
17.3000	2054.9525
17.3100	2079.4200
17.3200	2083.3325
17.3300	2108.8050
17.3400	2065.7575
17.3500	2037.2825
17.3600	1931.6550
17.3700	1976.2075
17.3800	1949.2300
17.3900	1666.9725
17.4000	1811.4850
17.4100	1997.3325
17.4200	1894.0975
17.4300	1812.0525
17.4400	1660.9575
17.4500	1654.5625
17.4600	1919.1250
17.4700	1873.8575
17.4800	1946.7825
17.4900	1907.7525
17.5000	1958.8625
17.5100	1945.5950
17.5200	1945.9050
17.5300	2075.6175
17.5400	2066.4550
17.5500	1849.2900
17.5600	1783.3325
17.5700	1783.3325
17.5800	1833.4050
17.5900	1837.4900
17.6000	1758.3300
17.6100	1933.2025
17.6200	1862.6850
17.6300	1679.4475
17.6400	1795.3850
17.6500	2011.9400
17.6600	2166.2525
17.6700	2112.9250
17.6800	1934.1675
17.6900	1957.8650
17.7000	1995.7475
17.7100	1987.5950
17.7200	2032.9150
17.7300	2037.6125
17.7400	1959.0650
17.7500	1883.8575
17.7600	1903.7475
17.7700	1929.0175
17.7800	1834.5925
17.7900	1701.3275
17.8000	1888.5200
17.8100	2077.5150
17.8200	1968.9750
17.8300	1855.1725
17.8400	1857.9125
17.8500	1964.9150
17.8600	2233.1750
17.8700	1948.7600
17.8800	1804.4125
17.8900	1861.2300
17.9000	1834.3850
17.9100	1779.9825
17.9200	1876.6425
17.9300	1757.9275
17.9400	1626.7900
17.9500	1758.5100
17.9600	1975.0600
17.9700	1960.2825
17.9800	1933.3325
17.9900	1909.0175
18.0000	1802.8100
18.0100	1742.3875
18.0200	1854.6450
18.0300	1839.3875
18.0400	1792.4400
18.0500	1952.7975
18.0600	1847.3250
18.0700	1783.3325
18.0800	1807.4900
18.0900	1901.1500
18.1000	1921.2725
18.1100	1868.4600
18.1200	1946.3400
18.1300	1983.3325
18.1400	1935.2350
18.1500	1952.7150
18.1600	1798.5675
18.1700	1793.3250
18.1800	1780.6975
18.1900	1754.6850
18.2000	1869.7150
18.2100	1892.7400
18.2200	1859.4250
18.2300	1957.5050
18.2400	1928.3825
18.2500	1828.4375
18.2600	1537.7975
18.2700	1671.5200
18.2800	1849.9700
18.2900	1704.9600
18.3000	1704.6300
18.3100	1958.9350
18.3200	1943.2150
18.3300	1900.0000
18.3400	1935.5400
18.3500	1772.4275
18.3600	1676.3425
18.3700	1702.1275
18.3800	1763.9125
18.3900	1854.1475
18.4000	1930.5075
18.4100	1938.2150
18.4200	1898.0050
18.4300	1918.6325
18.4400	1968.6075
18.4500	1877.5925
18.4600	1880.2925
18.4700	1911.7300
18.4800	1928.3900
18.4900	1991.9000
18.5000	1958.1450
18.5100	1851.4675
18.5200	1898.4700
18.5300	1793.2050
18.5400	1768.3375
18.5500	1829.9700
18.5600	1896.6025
18.5700	1858.4600
18.5800	1798.4350
18.5900	1876.3225
18.6000	1846.9800
18.6100	1839.8775
18.6200	1850.0000
18.6300	1850.0000
18.6400	2058.4175
18.6500	1953.3150
18.6600	1820.4225
18.6700	1788.4475
18.6800	1875.6750
18.6900	1870.5325
18.7000	1850.0000
18.7100	1734.8400
18.7200	1706.3475
18.7300	1739.6625
18.7400	1692.5550
18.7500	1896.2650
18.7600	2126.1800
18.7700	2022.8675
18.7800	1675.1300
18.7900	1744.5475
18.8000	2096.3350
18.8100	2079.5550
18.8200	1993.8325
18.8300	1857.8475
18.8400	1640.4150
18.8500	1635.0050
18.8600	1803.2375
18.8700	1843.9225
18.8800	1901.5100
18.8900	1831.1500
18.9000	1783.3325
18.9100	1771.9975
18.9200	1811.9725
18.9300	1788.0625
18.9400	1744.0500
18.9500	1744.6325
18.9600	1817.7425
18.9700	1951.5325
18.9800	1977.4550
18.9900	1786.4525
19.0000	1846.3075
19.0100	1882.9300
19.0200	1832.9575
19.0300	1771.7575
19.0400	1738.7825
19.0500	1598.8250
19.0600	1611.7325
19.0700	1862.6275
19.0800	1989.0300
19.0900	1821.2350
19.1000	1878.4625
19.1100	2061.5475
19.1200	1938.3375
19.1300	1816.5900
19.1400	1844.5100
19.1500	1888.9025
19.1600	1777.7975
19.1700	1827.6700
19.1800	1894.4250
19.1900	1789.1800
19.2000	1733.3325
19.2100	1788.6525
19.2200	1805.6125
19.2300	1899.4125
19.2400	1861.7075
19.2500	1794.6125
19.2600	1882.5000
19.2700	1966.3625
19.2800	1917.3325
19.2900	1927.2975
19.3000	1917.0550
19.3100	1647.6225
19.3200	1483.7750
19.3300	1751.4900
19.3400	1921.8900
19.3500	1933.3325
19.3600	1813.1325
19.3700	1706.3275
19.3800	1726.9700
19.3900	1826.3000
19.4000	1942.9025
19.4100	1939.8075
19.4200	1655.7225
19.4300	1560.1200
19.4400	1637.6050
19.4500	1699.2025
19.4600	1803.3550
19.4700	1871.6550
19.4800	1818.4275
19.4900	1869.8025
19.5000	1938.2650
19.5100	1917.6300
19.5200	1900.0000
19.5300	1889.2275
19.5400	1937.1475
19.5500	1988.1750
19.5600	1871.0650
19.5700	1800.0000
19.5800	1714.1900
19.5900	1645.2325
19.6000	1686.8725
19.6100	1566.8825
19.6200	1568.8500
19.6300	1723.4725
19.6400	1858.0325
19.6500	1846.6900
19.6600	1731.4425
19.6700	1672.6900
19.6800	1815.5525
19.6900	1974.3775
19.7000	1793.7250
19.7100	1698.4875
19.7200	1663.6775
19.7300	1760.3975
19.7400	1928.5500
19.7500	1909.3400
19.7600	1761.0550
19.7700	1710.5525
19.7800	1769.3800
19.7900	1873.7350
19.8000	1958.7650
19.8100	1752.0000
19.8200	1658.6900
19.8300	1714.8225
19.8400	1680.8950
19.8500	1702.3925
19.8600	1775.2100
19.8700	1695.4000
19.8800	1696.0375
19.8900	1869.0725
19.9000	1856.1100
19.9100	1737.4625
19.9200	1772.8975
19.9300	1847.8800
19.9400	2012.2025
19.9500	2110.3850
19.9600	1961.0125
19.9700	1617.8400
19.9800	1570.2525
19.9900	1591.9350
20.0000	1670.0675
20.0100	1774.6575
20.0200	1727.7500
20.0300	1858.6425
20.0400	1853.3325
20.0500	1742.1575
20.0600	1901.7900
20.0700	1903.6375
20.0800	1751.2050
20.0900	1833.3400
20.1000	1855.1800
20.1100	1755.2375
20.1200	1747.3550
20.1300	1705.3475
20.1400	1799.4050
20.1500	1771.1200
20.1600	1761.1525
20.1700	1861.0975
20.1800	1818.6125
20.1900	1736.1750
20.2000	1625.2725
20.2100	1728.9975
20.2200	1802.9250
20.2300	1752.9525
20.2400	1834.5125
20.2500	1829.2400
20.2600	1874.2275
20.2700	1771.8925
20.2800	1626.3425
20.2900	1720.8575
20.3000	1759.7500
20.3100	1823.8100
20.3200	1853.2025
20.3300	1753.0575
20.3400	1750.1250
20.3500	1773.3175
20.3600	1796.6850
20.3700	1816.6675
20.3800	1936.5200
20.3900	1936.8375
20.4000	1664.0100
20.4100	1466.8675
20.4200	1602.4950
20.4300	1488.0150
20.4400	1492.2450
20.4500	1808.3775
20.4600	1880.6050
20.4700	1744.1975
20.4800	1683.3325
20.4900	1604.2500
20.5000	1569.7525
20.5100	1800.4025
20.5200	1782.4225
20.5300	1656.8175
20.5400	1689.3550
20.5500	1775.6425
20.5600	1797.0275
20.5700	1606.7375
20.5800	1444.1275
20.5900	1553.7575
20.6000	1698.9150
20.6100	1664.9200
20.6200	1675.2525
20.6300	1736.1775
20.6400	1711.0175
20.6500	1654.1250
20.6600	1623.6075
20.6700	1713.8400
20.6800	1676.5450
20.6900	1580.6025
20.7000	1634.4925
20.7100	1760.7725
20.7200	1855.3500
20.7300	1825.3650
20.7400	1744.7250
20.7500	1803.4500
20.7600	1885.9325
20.7700	1890.3750
20.7800	1767.9600
20.7900	1673.7275
20.8000	1714.6450
20.8100	1558.2725
20.8200	1483.7050
20.8300	1456.7925
20.8400	1476.4650
20.8500	1638.3700
20.8600	1735.7450
20.8700	1788.1200
20.8800	1750.0225
20.8900	1738.0450
20.9000	1662.1450
20.9100	1535.8700
20.9200	1556.9000
20.9300	1618.9475
20.9400	1614.4050
20.9500	1581.0900
20.9600	1632.7850
20.9700	1739.9500
20.9800	1660.7850
20.9900	1557.2500
21.0000	1709.9375
21.0100	1767.5425
21.0200	1791.7800
21.0300	1859.3800
21.0400	1754.2225
21.0500	1535.6125
21.0600	1554.9050
21.0700	1612.6300
21.0800	1546.0025
21.0900	1460.7275
21.1000	1556.3750
21.1100	1657.3625
21.1200	1631.4100
21.1300	1560.9525
21.1400	1451.7325
21.1500	1474.1350
21.1600	1625.9075
21.1700	1792.4800
21.1800	1737.3275
21.1900	1559.5000
21.2000	1555.3175
21.2100	1655.2625
21.2200	1709.2000
21.2300	1753.4325
21.2400	1608.8750
21.2500	1613.4275
21.2600	1715.0075
21.2700	1700.0000
21.2800	1626.8475
21.2900	1520.9925
21.3000	1492.4575
21.3100	1536.4625
21.3200	1739.6875
21.3300	1801.4600
21.3400	1642.4575
21.3500	1575.7450
21.3600	1683.0875
21.3700	1748.5475
21.3800	1606.6375
21.3900	1509.0400
21.4000	1552.7900
21.4100	1655.5025
21.4200	1779.7500
21.4300	1761.3150
21.4400	1655.0350
21.4500	1436.9975
21.4600	1489.7350
21.4700	1657.7025
21.4800	1569.4050
21.4900	1428.4350
21.5000	1536.4525
21.5100	1719.0400
21.5200	1651.9125
21.5300	1620.1125
21.5400	1657.7675
21.5500	1623.3350
21.5600	1608.8800
21.5700	1590.0575
21.5800	1602.1075
21.5900	1659.8850
21.6000	1647.9675
21.6100	1572.5075
21.6200	1453.9325
21.6300	1506.7125
21.6400	1572.6500
21.6500	1542.1275
21.6600	1672.9800
21.6700	1757.0100
21.6800	1671.9775
21.6900	1590.4000
21.7000	1557.9200
21.7100	1602.4200
21.7200	1501.6375
21.7300	1427.6900
21.7400	1648.7900
21.7500	1704.3150
21.7600	1547.1525
21.7700	1561.4500
21.7800	1607.3225
21.7900	1669.9400
21.8000	1732.6975
21.8100	1578.4000
21.8200	1527.6875
21.8300	1643.1125
21.8400	1726.3975
21.8500	1732.2525
21.8600	1734.3750
21.8700	1715.1600
21.8800	1546.6175
21.8900	1621.7725
21.9000	1851.3350
21.9100	1720.5275
21.9200	1567.0725
21.9300	1532.1700
21.9400	1577.0275
21.9500	1615.6175
21.9600	1600.6600
21.9700	1684.2675
21.9800	1716.3750
21.9900	1683.0600
22.0000	1675.1275
22.0100	1581.9225
22.0200	1466.4500
22.0300	1466.8625
22.0400	1474.9100
22.0500	1382.5400
22.0600	1409.2400
22.0700	1575.4225
22.0800	1515.9575
22.0900	1416.7500
22.1000	1391.5075
22.1100	1517.1075
22.1200	1716.7175
22.1300	1699.9825
22.1400	1541.7525
22.1500	1516.5050
22.1600	1500.3100
22.1700	1408.2975
22.1800	1499.5500
22.1900	1475.7075
22.2000	1383.2050
22.2100	1466.0775
22.2200	1533.3325
22.2300	1533.3325
22.2400	1566.2575
22.2500	1567.1150
22.2600	1549.7575
22.2700	1525.6550
22.2800	1483.3325
22.2900	1499.7000
22.3000	1549.3600
22.3100	1460.8750
22.3200	1357.7950
22.3300	1424.0575
22.3400	1564.2875
22.3500	1658.5400
22.3600	1544.4925
22.3700	1409.0150
22.3800	1480.4950
22.3900	1510.5500
22.4000	1401.0225
22.4100	1390.8700
22.4200	1481.1325
22.4300	1525.8550
22.4400	1475.8825
22.4500	1385.7650
22.4600	1348.7475
22.4700	1439.4050
22.4800	1483.9975
22.4900	1530.5950
22.5000	1568.0750
22.5100	1613.0525
22.5200	1652.2275
22.5300	1631.8100
22.5400	1595.1800
22.5500	1540.4675
22.5600	1542.8950
22.5700	1508.7525
22.5800	1571.1400
22.5900	1531.5750
22.6000	1415.7700
22.6100	1456.9600
22.6200	1459.7350
22.6300	1449.0450
22.6400	1498.0550
22.6500	1556.8450
22.6600	1528.5400
22.6700	1419.7600
22.6800	1413.5175
22.6900	1443.2700
22.7000	1510.1350
22.7100	1585.5500
22.7200	1565.5400
22.7300	1645.4150
22.7400	1631.4125
22.7500	1471.4075
22.7600	1353.6125
22.7700	1354.0500
22.7800	1447.5150
22.7900	1521.8450
22.8000	1528.2050
22.8100	1544.7975
22.8200	1601.3200
22.8300	1575.6700
22.8400	1574.3200
22.8500	1483.9575
22.8600	1252.1475
22.8700	1192.9175
22.8800	1496.5625
22.8900	1658.7325
22.9000	1527.2125
22.9100	1545.5175
22.9200	1584.8475
22.9300	1490.9950
22.9400	1279.0825
22.9500	1208.8100
22.9600	1390.4575
22.9700	1530.1125
22.9800	1521.5550
22.9900	1451.6475
23.0000	1478.3300
23.0100	1563.2925
23.0200	1517.7200
23.0300	1386.7850
23.0400	1417.1450
23.0500	1522.3525
23.0600	1520.2350
23.0700	1409.0175
23.0800	1324.0875
23.0900	1296.2725
23.1000	1227.7925
23.1100	1288.7150
23.1200	1363.0825
23.1300	1412.5225
23.1400	1555.4250
23.1500	1568.6250
23.1600	1513.2775
23.1700	1503.3400
23.1800	1550.0000
23.1900	1535.3700
23.2000	1480.1375
23.2100	1309.3000
23.2200	1150.0000
23.2300	1288.2575
23.2400	1517.5350
23.2500	1612.3625
23.2600	1613.7625
23.2700	1544.9525
23.2800	1552.8075
23.2900	1563.9075
23.3000	1422.9525
23.3100	1371.9900
23.3200	1394.7725
23.3300	1321.5400
23.3400	1393.0200
23.3500	1407.0375
23.3600	1342.8500
23.3700	1383.3200
23.3800	1414.3450
23.3900	1316.8175
23.4000	1321.1175
23.4100	1487.6850
23.4200	1547.8725
23.4300	1436.2575
23.4400	1342.9275
23.4500	1375.7125
23.4600	1440.3875
23.4700	1386.6075
23.4800	1292.9650
23.4900	1395.7200
23.5000	1627.1600
23.5100	1803.3800
23.5200	1809.0650
23.5300	1543.6275
23.5400	1454.6325
23.5500	1502.4775
23.5600	1359.7100
23.5700	1405.5700
23.5800	1518.0175
23.5900	1532.0325
23.6000	1400.3275
23.6100	1345.5000
23.6200	1447.1275
23.6300	1494.2175
23.6400	1464.5525
23.6500	1380.4025
23.6600	1400.0000
23.6700	1358.9050
23.6800	1313.6775
23.6900	1401.6275
23.7000	1520.4600
23.7100	1475.0900
23.7200	1393.8675
23.7300	1467.2850
23.7400	1475.9825
23.7500	1403.1250
23.7600	1498.2750
23.7700	1612.6550
23.7800	1499.6250
23.7900	1510.5875
23.8000	1573.1100
23.8100	1479.6325
23.8200	1426.8100
23.8300	1480.0525
23.8400	1506.6825
23.8500	1536.6875
23.8600	1500.0300
23.8700	1373.3850
23.8800	1333.3325
23.8900	1379.7750
23.9000	1463.2500
23.9100	1463.4875
23.9200	1466.3600
23.9300	1483.6900
23.9400	1439.9200
23.9500	1377.6650
23.9600	1286.3650
23.9700	1369.1175
23.9800	1423.8150
23.9900	1370.2600
24.0000	1382.6350
24.0100	1407.2650
24.0200	1347.1450
24.0300	1349.1550
24.0400	1445.4150
24.0500	1432.4525
24.0600	1351.7450
24.0700	1433.3325
24.0800	1426.8850
24.0900	1455.3000
24.1000	1568.1000
24.1100	1560.1300
24.1200	1333.3425
24.1300	1289.5975
24.1400	1490.8425
24.1500	1583.3325
24.1600	1462.2950
24.1700	1311.1900
24.1800	1427.7900
24.1900	1557.0700
24.2000	1561.3625
24.2100	1378.7375
24.2200	1278.7975
24.2300	1210.3650
24.2400	1256.6300
24.2500	1381.4125
24.2600	1477.2400
24.2700	1568.7875
24.2800	1600.0000
24.2900	1562.5425
24.3000	1450.1325
24.3100	1428.9025
24.3200	1564.4025
24.3300	1598.0550
24.3400	1579.0550
24.3500	1538.1575
24.3600	1458.0300
24.3700	1456.8475
24.3800	1358.7150
24.3900	1310.5225
24.4000	1392.0275
24.4100	1599.0025
24.4200	1567.1375
24.4300	1427.7250
24.4400	1551.6225
24.4500	1552.9025
24.4600	1445.3125
24.4700	1392.4650
24.4800	1393.9850
24.4900	1290.8550
24.5000	1448.0375
24.5100	1619.8625
24.5200	1536.5800
24.5300	1561.4325
24.5400	1759.9775
24.5500	1920.5575
24.5600	1974.8200
24.5700	1864.1900
24.5800	1871.5025
24.5900	2011.8975
24.6000	2051.1500
24.6100	2089.2625
24.6200	2040.8075
24.6300	1921.5150
24.6400	1846.9050
24.6500	1732.3300
24.6600	1729.4000
24.6700	1800.9425
24.6800	1827.4725
24.6900	1717.2100
24.7000	1498.2900
24.7100	1491.6400
24.7200	1518.5075
24.7300	1384.1000
24.7400	1387.6600
24.7500	1321.7500
24.7600	1409.8500
24.7700	1541.6350
24.7800	1382.7150
24.7900	1355.7525
24.8000	1372.4100
24.8100	1371.8675
24.8200	1384.3350
24.8300	1472.8500
24.8400	1545.1800
24.8500	1565.8425
24.8600	1437.4850
24.8700	1339.3600
24.8800	1411.6500
24.8900	1449.7050
24.9000	1456.1725
24.9100	1561.5025
24.9200	1594.1700
24.9300	1527.5425
24.9400	1466.5200
24.9500	1405.3600
24.9600	1394.6775
24.9700	1427.5850
24.9800	1305.5375
24.9900	1355.5500
25.0000	1488.9100
25.0100	1466.6675
25.0200	1461.1400
25.0300	1450.0000
25.0400	1394.9425
25.0500	1283.3325
25.0600	1316.2500
25.0700	1399.7625
25.0800	1406.0025
25.0900	1382.7400
25.1000	1439.1075
25.1100	1405.7925
25.1200	1394.1875
25.1300	1335.4125
25.1400	1215.3300
25.1500	1343.6525
25.1600	1394.6125
25.1700	1372.5775
25.1800	1350.0000
25.1900	1350.0000
25.2000	1360.6950
25.2100	1420.7000
25.2200	1452.0450
25.2300	1344.6825
25.2400	1290.8650
25.2500	1279.4800
25.2600	1423.5575
25.2700	1393.0600
25.2800	1423.6550
25.2900	1356.1475
25.3000	1391.0750
25.3100	1521.9050
25.3200	1465.3500
25.3300	1327.1050
25.3400	1303.1125
25.3500	1283.1975
25.3600	1508.1850
25.3700	1486.0400
25.3800	1222.9925
25.3900	1241.2825
25.4000	1333.3325
25.4100	1328.1925
25.4200	1280.7525
25.4300	1215.3625
25.4400	1234.6675
25.4500	1230.6050
25.4600	1335.6375
25.4700	1421.7475
25.4800	1428.2625
25.4900	1447.0350
25.5000	1526.7700
25.5100	1514.7075
25.5200	1468.5550
25.5300	1509.8250
25.5400	1406.6425
25.5500	1423.3500
25.5600	1566.5875
25.5700	1643.4750
25.5800	1510.2200
25.5900	1426.5925
25.6000	1519.3375
25.6100	1663.5625
25.6200	1592.0025
25.6300	1612.1000
25.6400	1858.9575
25.6500	2009.8075
25.6600	2028.4400
25.6700	2021.5500
25.6800	1979.7250
25.6900	1879.1800
25.7000	1974.2675
25.7100	1975.2075
25.7200	1799.4975
25.7300	1678.0750
25.7400	1535.1925
25.7500	1426.2750
25.7600	1450.0000
25.7700	1430.8625
25.7800	1378.5600
25.7900	1371.4300
25.8000	1402.3525
25.8100	1421.5325
25.8200	1340.5300
25.8300	1330.8425
25.8400	1376.0975
25.8500	1423.5250
25.8600	1478.6375
25.8700	1410.4450
25.8800	1290.0425
25.8900	1382.6575
25.9000	1466.6675
25.9100	1434.1475
25.9200	1363.9075
25.9300	1381.4975
25.9400	1310.2550
25.9500	1245.3950
25.9600	1256.3125
25.9700	1289.1500
25.9800	1248.7000
25.9900	1337.9000
26.0000	1345.4425
26.0100	1356.0650
26.0200	1412.1300
26.0300	1363.7875
26.0400	1235.0500
26.0500	1140.9875
26.0600	1179.6225
26.0700	1358.9750
26.0800	1351.9950
26.0900	1306.8700
26.1000	1430.0375
26.1100	1480.0075
26.1200	1490.0425
26.1300	1434.3750
26.1400	1474.4975
26.1500	1472.0375
26.1600	1520.1400
26.1700	1457.0075
26.1800	1392.0900
26.1900	1407.9300
26.2000	1378.9750
26.2100	1379.7100
26.2200	1442.6950
26.2300	1495.0250
26.2400	1377.1975
26.2500	1246.8250
26.2600	1346.2275
26.2700	1391.9100
26.2800	1378.1600
26.2900	1275.2025
26.3000	1325.5525
26.3100	1404.2475
26.3200	1403.9500
26.3300	1349.7525
26.3400	1333.7500
26.3500	1475.4225
26.3600	1549.6125
26.3700	1475.4025
26.3800	1683.2825
26.3900	1562.4575
26.4000	1345.8400
26.4100	1412.1700
26.4200	1633.4425
26.4300	1583.3325
26.4400	1620.4100
26.4500	1638.8125
26.4600	1337.7000
26.4700	1336.8075
26.4800	1486.7175
26.4900	1563.3725
26.5000	1425.6400
26.5100	1325.7000
26.5200	1225.7600
26.5300	1202.3900
26.5400	1422.9475
26.5500	1547.8675
26.5600	1363.3325
26.5700	1284.0400
26.5800	1261.1950
26.5900	1369.8525
26.6000	1453.1350
26.6100	1524.5675
26.6200	1530.2975
26.6300	1505.9725
26.6400	1637.2550
26.6500	1583.5175
26.6600	1382.2700
26.6700	1421.6600
26.6800	1410.5000
26.6900	1484.5175
26.7000	1379.2800
26.7100	1238.5100
26.7200	1401.2375
26.7300	1478.3550
26.7400	1353.8200
26.7500	1397.1575
26.7600	1461.9875
26.7700	1329.5425
26.7800	1354.4800
26.7900	1487.1050
26.8000	1484.9550
26.8100	1440.8375
26.8200	1459.1825
26.8300	1422.1375
26.8400	1394.4975
26.8500	1474.1625
26.8600	1612.9650
26.8700	1614.7675
26.8800	1640.8925
26.8900	1509.6100
26.9000	1443.5675
26.9100	1694.7550
26.9200	1583.8875
26.9300	1441.2425
26.9400	1346.3775
26.9500	1315.2725
26.9600	1286.0225
26.9700	1409.4825
26.9800	1376.1675
26.9900	1342.8550
27.0000	1330.9175
27.0100	1401.0950
27.0200	1441.8700
27.0300	1346.4675
27.0400	1308.6750
27.0500	1234.2300
27.0600	1321.0150
27.0700	1403.4925
27.0800	1434.0800
27.0900	1541.6725
27.1000	1675.7600
27.1100	1548.8050
27.1200	1454.5375
27.1300	1600.0000
27.1400	1644.4975
27.1500	1758.6450
27.1600	1546.9450
27.1700	1586.4275
27.1800	1536.7175
27.1900	1539.8800
27.2000	1510.0900
27.2100	1546.6475
27.2200	1513.2750
27.2300	1486.6650
27.2400	1686.7075
27.2500	1636.6475
27.2600	1650.0000
27.2700	1630.2400
27.2800	1520.4475
27.2900	1406.5475
27.3000	1449.6500
27.3100	1510.1600
27.3200	1493.0650
27.3300	1510.6975
27.3400	1474.6925
27.3500	1752.0175
27.3600	1839.1300
27.3700	1589.7200
27.3800	1680.3425
27.3900	1962.6950
27.4000	2004.0100
27.4100	1934.2300
27.4200	1838.3700
27.4300	1788.7475
27.4400	2068.7600
27.4500	2039.2100
27.4600	2394.4625
27.4700	1961.1800
27.4800	2129.5950
27.4900	2357.9275
27.5000	2534.0800
27.5100	2815.0075
27.5200	2696.8025
27.5300	2581.8825
27.5400	2818.1450
27.5500	2884.9275
27.5600	2813.6625
27.5700	2776.0450
27.5800	2669.6500
27.5900	2719.0275
27.6000	2880.3700
27.6100	2813.4850
27.6200	2634.3900
27.6300	2961.7375
27.6400	3007.8925
27.6500	2949.1800
27.6600	2889.9050
27.6700	3011.5775
27.6800	3060.8975
27.6900	2998.8375
27.7000	2864.8450
27.7100	3036.6500
27.7200	3139.0225
27.7300	3183.6750
27.7400	3294.9150
27.7500	3458.6675
27.7600	3521.6250
27.7700	3239.0250
27.7800	3436.3350
27.7900	3899.9675
27.8000	4047.3125
27.8100	3950.0000
27.8200	4007.6475
27.8300	4275.3850
27.8400	4092.7725
27.8500	3859.7325
27.8600	4207.2450
27.8700	4430.1425
27.8800	4481.2025
27.8900	4482.3175
27.9000	5007.9950
27.9100	5012.8250
27.9200	4872.2175
27.9300	5208.8325
27.9400	5401.8300
27.9500	5235.9475
27.9600	5273.4475
27.9700	5418.1675
27.9800	5576.1325
27.9900	5920.6050
28.0000	6100.0375
28.0100	6505.0000
28.0200	6810.8525
28.0300	7277.5500
28.0400	7138.4075
28.0500	8084.9075
28.0600	8022.5500
28.0700	8090.1050
28.0800	7797.2275
28.0900	8103.8025
28.1000	8264.8850
28.1100	8010.8700
28.1200	8391.4025
28.1300	9104.4875
28.1400	9072.1475
28.1500	9309.6625
28.1600	9393.1325
28.1700	9576.3550
28.1800	9750.0350
28.1900	9909.3975
28.2000	10356.5725
28.2100	10984.8150
28.2200	11563.3425
28.2300	12029.4250
28.2400	12635.2950
28.2500	13505.6300
28.2600	14599.5825
28.2700	16330.1250
28.2800	18492.5525
28.2900	21556.0400
28.3000	25427.3000
28.3100	31433.8500
28.3200	39647.1525
28.3300	50034.4475
28.3400	61015.5525
28.3500	74941.2025
28.3600	90390.1225
28.3700	107159.8850
28.3800	128355.4475
28.3900	152924.6925
28.4000	182743.6800
28.4100	213080.7125
28.4200	245066.6225
28.4300	275555.4875
28.4400	303716.9700
28.4500	328207.2375
28.4600	342412.8675
28.4700	348392.9350
28.4800	340414.8925
28.4900	319229.0700
28.5000	288642.7600
28.5100	258580.5325
28.5200	229571.5400
28.5300	204306.5600
28.5400	183097.5250
28.5500	159932.1025
28.5600	136555.1525
28.5700	111677.7925
28.5800	88713.4175
28.5900	66517.2925
28.6000	49404.1725
28.6100	37015.9025
28.6200	28311.8075
28.6300	23688.6125
28.6400	20165.4900
28.6500	17867.4650
28.6600	15806.9775
28.6700	14643.0900
28.6800	14084.8925
28.6900	13087.6050
28.7000	12254.9175
28.7100	11618.4775
28.7200	11461.2100
28.7300	11138.9775
28.7400	11018.9375
28.7500	10746.6775
28.7600	10585.1400
28.7700	10528.1125
28.7800	9890.4400
28.7900	9496.0100
28.8000	9146.2200
28.8100	8784.1275
28.8200	8328.2250
28.8300	7956.5650
28.8400	7555.6950
28.8500	7251.4050
28.8600	6650.8925
28.8700	6302.1625
28.8800	5702.9575
28.8900	5408.1700
28.9000	5190.0025
28.9100	5190.3275
28.9200	4625.2875
28.9300	4367.2475
28.9400	4047.1350
28.9500	3831.0775
28.9600	3503.2150
28.9700	3538.1275
28.9800	3545.2275
28.9900	3177.0225
29.0000	3086.8800
29.0100	2863.8700
29.0200	3498.8125
29.0300	3610.0150
29.0400	3186.1100
29.0500	2896.9950
29.0600	3012.2225
29.0700	2791.0125
29.0800	2711.9050
29.0900	2833.3325
29.1000	2817.1850
29.1100	2663.1225
29.1200	2798.5525
29.1300	2776.1425
29.1400	2695.7150
29.1500	2651.4175
29.1600	2689.1975
29.1700	2913.7575
29.1800	2719.4350
29.1900	2919.5500
29.2000	2755.7200
29.2100	2623.8250
29.2200	2522.0600
29.2300	2594.0400
29.2400	2706.0400
29.2500	2576.7400
29.2600	2507.8500
29.2700	2587.0150
29.2800	2430.7550
29.2900	2428.1275
29.3000	2769.2050
29.3100	2766.0175
29.3200	2366.2325
29.3300	2577.8150
29.3400	2699.4650
29.3500	2469.9275
29.3600	2314.5050
29.3700	2483.2175
29.3800	2271.4225
29.3900	2356.9100
29.4000	2645.6250
29.4100	2355.0775
29.4200	2205.7450
29.4300	2284.4725
29.4400	2306.7750
29.4500	2410.0725
29.4600	2527.8175
29.4700	2201.2775
29.4800	2005.1175
29.4900	2323.1425
29.5000	2405.9750
29.5100	2259.5325
29.5200	2396.8525
29.5300	2333.3700
29.5400	2078.1875
29.5500	2009.1750
29.5600	2144.9525
29.5700	2079.6600
29.5800	2290.2600
29.5900	2395.1025
29.6000	2316.6675
29.6100	2320.5050
29.6200	2366.2400
29.6300	2082.3925
29.6400	2067.5975
29.6500	2084.2525
29.6600	2095.4500
29.6700	2013.0675
29.6800	1961.5700
29.6900	2159.6275
29.7000	2049.8625
29.7100	2343.1200
29.7200	2214.9675
29.7300	2183.3325
29.7400	2186.6550
29.7500	2250.0000
29.7600	2240.2775
29.7700	2041.9975
29.7800	1890.4450
29.7900	2035.6750
29.8000	2077.1700
29.8100	1956.0825
29.8200	2090.0875
29.8300	2236.2950
29.8400	2293.4250
29.8500	2142.7950
29.8600	1986.1750
29.8700	2053.5025
29.8800	2127.8075
29.8900	1991.8300
29.9000	1803.3550
29.9100	1891.9250
29.9200	2095.4425
29.9300	1982.6925
29.9400	1953.4150
29.9500	1619.1500
29.9600	1685.7775
29.9700	1756.6125
29.9800	1931.5600
29.9900	1883.9150
30.0000	1902.2850
30.0100	1963.8600
30.0200	1883.8850
30.0300	1898.9175
30.0400	1869.3250
30.0500	1943.2200
30.0600	1733.8450
30.0700	1758.0275
30.0800	2014.7000
30.0900	1952.4100
30.1000	2029.5600
30.1100	1897.2300
30.1200	1796.8375
30.1300	1684.6600
30.1400	1736.3575
30.1500	1846.2025
30.1600	1702.0600
30.1700	1786.5500
30.1800	1918.2350
30.1900	1978.7450
30.2000	1784.4500
30.2100	1832.6075
30.2200	1797.5325
30.2300	1684.7025
30.2400	1750.6650
30.2500	1786.5600
30.2600	1949.6875
30.2700	1931.8200
30.2800	1849.4150
30.2900	1813.2725
30.3000	1623.4900
30.3100	2031.4925
30.3200	1913.3775
30.3300	1700.2425
30.3400	1717.3650
30.3500	1765.9975
30.3600	1716.8800
30.3700	1734.7575
30.3800	1848.8400
30.3900	1750.5500
30.4000	1799.6525
30.4100	1769.7750
30.4200	2081.7975
30.4300	1915.2300
30.4400	1750.8025
30.4500	1850.6200
30.4600	1932.1950
30.4700	1767.0825
30.4800	1834.0850
30.4900	1965.2375
30.5000	1683.0375
30.5100	1616.7950
30.5200	1650.4350
30.5300	1782.9775
30.5400	1650.0000
30.5500	1649.7550
30.5600	1483.4500
30.5700	1616.6575
30.5800	1583.3450
30.5900	1666.5900
30.6000	1783.1575
30.6100	1816.5975
30.6200	1766.8025
30.6300	1716.8325
30.6400	1484.2400
30.6500	1533.1100
30.6600	1815.2275
30.6700	1750.3775
30.6800	1617.5025
30.6900	1649.7700
30.7000	1501.1200
30.7100	1318.1425
30.7200	1597.5475
30.7300	1913.7375
30.7400	1834.1525
30.7500	1651.9125
30.7600	1814.8275
30.7700	1717.8300
30.7800	1584.9625
30.7900	1747.8625
30.8000	1486.9100
30.8100	1631.2325
30.8200	1666.1800
30.8300	1617.4275
30.8400	1419.8250
30.8500	1613.3900
30.8600	1665.8175
30.8700	1535.6775
30.8800	1664.2425
30.8900	1797.4975
30.9000	1750.9675
30.9100	1831.6700
30.9200	1768.0375
30.9300	1652.4675
30.9400	1633.6950
30.9500	1584.4500
30.9600	1615.9025
30.9700	1649.2150
30.9800	1552.4125
30.9900	1582.5100
31.0000	1550.8425
31.0100	1598.7050
31.0200	1681.1250
31.0300	1537.3975
31.0400	1533.3325
31.0500	1808.6550
31.0600	1719.5550
31.0700	1700.4900
31.0800	1619.1725
31.0900	1616.6675
31.1000	1568.2300
31.1100	1485.9875
31.1200	1531.7125
31.1300	1630.0300
31.1400	1681.6525
31.1500	1506.2750
31.1600	1548.2600
31.1700	1469.6175
31.1800	1675.5325
31.1900	1619.1075
31.2000	1793.1825
31.2100	1623.5925
31.2200	1232.0175
31.2300	1488.9575
31.2400	1500.0000
31.2500	1420.0125
31.2600	1688.4525
31.2700	1540.2250
31.2800	1229.9475
31.2900	1264.5400
31.3000	1442.0925
31.3100	1641.2550
31.3200	1506.6475
31.3300	1324.9000
31.3400	1332.5750
31.3500	1555.9125
31.3600	1519.0000
31.3700	1469.0300
31.3800	1641.2225
31.3900	1554.8475
31.4000	1486.6050
31.4100	1610.0475
31.4200	1505.8625
31.4300	1278.5275
31.4400	1329.9050
31.4500	1491.3300
31.4600	1626.3175
31.4700	1554.4350
31.4800	1534.2300
31.4900	1328.4525
31.5000	1474.1700
31.5100	1577.7750
31.5200	1567.6025
31.5300	1535.2250
31.5400	1439.0700
31.5500	1527.5375
31.5600	1439.1875
31.5700	1574.4625
31.5800	1614.6750
31.5900	1444.3925
31.6000	1574.1975
31.6100	1426.9175
31.6200	1401.0350
31.6300	1400.0000
31.6400	1212.6550
31.6500	1309.2150
31.6600	1503.7750
31.6700	1625.7425
31.6800	1493.1800
31.6900	1327.7075
31.7000	1472.1950
31.7100	1732.0200
31.7200	1672.3350
31.7300	1464.8650
31.7400	1543.0800
31.7500	1612.0150
31.7600	1461.7300
31.7700	1388.0650
31.7800	1460.7025
31.7900	1513.0600
31.8000	1362.1250
31.8100	1350.0000
31.8200	1411.7375
31.8300	1277.8450
31.8400	1266.6675
31.8500	1482.3350
31.8600	1330.6550
31.8700	1332.0525
31.8800	1379.4600
31.8900	1321.8700
31.9000	1500.9350
31.9100	1439.9375
31.9200	1479.3425
31.9300	1406.7025
31.9400	1354.0500
31.9500	1395.9200
31.9600	1400.0000
31.9700	1354.1400
31.9800	1395.8300
31.9900	1338.9325
32.0000	1333.3325
32.0100	1470.5600
32.0200	1407.1450
32.0300	1369.5450
32.0400	1214.4875
32.0500	1321.6650
32.0600	1394.1250
32.0700	1217.7400
32.0800	1108.9300
32.0900	1175.8425
32.1000	1137.8575
32.1100	1512.0600
32.1200	1489.4425
32.1300	1468.2050
32.1400	1300.3525
32.1500	1419.3200
32.1600	1463.5325
32.1700	1496.8475
32.1800	1424.6000
32.1900	1250.8925
32.2000	1383.9400
32.2100	1520.4050
32.2200	1428.0475
32.2300	1281.3875
32.2400	1341.7725
32.2500	1425.0575
32.2600	1538.3450
32.2700	1415.0750
32.2800	1549.8200
32.2900	1431.9175
32.3000	1207.1950
32.3100	1317.9050
32.3200	1408.0475
32.3300	1431.6000
32.3400	1328.8725
32.3500	1227.1875
32.3600	1470.0250
32.3700	1514.8925
32.3800	1308.2925
32.3900	1268.4600
32.4000	1192.3450
32.4100	1183.3325
32.4200	1316.9350
32.4300	1318.4975
32.4400	1390.7925
32.4500	1296.2950
32.4600	1446.1925
32.4700	1348.3025
32.4800	1288.9750
32.4900	1327.6600
32.5000	1318.5675
32.5100	1228.1275
32.5200	1378.8775
32.5300	1400.0000
32.5400	1385.2725
32.5500	1133.1425
32.5600	1055.8775
32.5700	1196.9750
32.5800	1304.7925
32.5900	1375.3775
32.6000	1236.6525
32.6100	1128.7175
32.6200	1248.5050
32.6300	1413.0550
32.6400	1433.3325
32.6500	1272.5225
32.6600	1118.5150
32.6700	1362.7925
32.6800	1472.9500
32.6900	1250.0525
32.7000	1464.3625
32.7100	1310.7125
32.7200	1210.5800
32.7300	1359.9500
32.7400	1325.2075
32.7500	1287.6250
32.7600	1268.8225
32.7700	1208.6600
32.7800	1200.0000
32.7900	1301.3750
32.8000	1432.4475
32.8100	1261.9850
32.8200	1204.4275
32.8300	1286.6600
32.8400	1357.7325
32.8500	1179.1600
32.8600	1063.5175
32.8700	1021.1925
32.8800	1175.0050
32.8900	1300.6925
32.9000	1216.0425
32.9100	1228.7300
32.9200	1118.4900
32.9300	1229.1100
32.9400	1120.9775
32.9500	1257.5850
32.9600	1097.2225
32.9700	1152.5050
32.9800	1180.9625
32.9900	1254.7675
33.0000	1295.2200
33.0100	1200.1275
33.0200	1069.2725
33.0300	1064.2475
33.0400	1166.3350
33.0500	1226.0175
33.0600	1261.7700
33.0700	1238.2500
33.0800	1332.7275
33.0900	1307.4325
33.1000	1257.4600
33.1100	1164.9800
33.1200	1263.2825
33.1300	1283.3325
33.1400	1141.9250
33.1500	1215.5825
33.1600	1106.2425
33.1700	1252.6700
33.1800	1156.4175
33.1900	1048.7800
33.2000	1160.0750
33.2100	1098.8975
33.2200	1181.7725
33.2300	1256.2125
33.2400	1112.1900
33.2500	1139.4675
33.2600	1037.8100
33.2700	1198.8500
33.2800	1303.3550
33.2900	1386.6400
33.3000	1302.1050
33.3100	1241.4075
33.3200	1191.4375
33.3300	1141.4650
33.3400	1175.1725
33.3500	1169.3975
33.3600	1194.5200
33.3700	1255.6675
33.3800	1169.3175
33.3900	1122.2050
33.4000	1005.5650
33.4100	1205.3825
33.4200	1263.8675
33.4300	1169.6575
33.4400	1205.3950
33.4500	1078.2750
33.4600	1132.9775
33.4700	1177.6400
33.4800	1141.9025
33.4900	995.3300
33.5000	1063.2025
33.5100	1193.5800
33.5200	1244.2100
33.5300	1277.5225
33.5400	1338.3400
33.5500	1267.5475
33.5600	1222.5350
33.5700	1175.4975
33.5800	1152.9525
33.5900	1054.0775
33.6000	1183.9650
33.6100	1038.7750
33.6200	1041.0225
33.6300	1077.3300
33.6400	1137.9525
33.6500	1259.1625
33.6600	1174.2500
33.6700	1068.2450
33.6800	1090.8475
33.6900	1059.1800
33.7000	1036.4025
33.7100	1074.0950
33.7200	1151.2200
33.7300	1125.9625
33.7400	1035.3175
33.7500	1030.2150
33.7600	1209.3375
33.7700	1087.6525
33.7800	1239.2725
33.7900	1229.2950
33.8000	1135.6675
33.8100	1116.6675
33.8200	1089.7050
33.8300	1137.2175
33.8400	1230.7675
33.8500	1317.2575
33.8600	1172.0300
33.8700	1119.9000
33.8800	1103.2450
33.8900	1059.7600
33.9000	1130.4200
33.9100	1002.6700
33.9200	1113.8925
33.9300	1163.3750
33.9400	1206.7600
33.9500	1203.3125
33.9600	1133.2725
33.9700	1116.6675
33.9800	1169.9700
33.9900	1263.2325
34.0000	1163.5725
34.0100	1199.8200
34.0200	1004.0650
34.0300	1122.6125
34.0400	1060.5200
34.0500	1006.8150
34.0600	1039.7475
34.0700	970.5650
34.0800	1029.3775
34.0900	917.8000
34.1000	975.8050
34.1100	1132.0075
34.1200	1127.0925
34.1300	1143.0300
34.1400	1123.6550
34.1500	1235.1275
34.1600	1108.8350
34.1700	1092.9525
34.1800	1008.0675
34.1900	917.7150
34.2000	1018.0275
34.2100	1102.4175
34.2200	1195.2350
34.2300	1085.8150
34.2400	1115.3775
34.2500	1146.4000
34.2600	1006.3800
34.2700	1044.9475
34.2800	1066.6675
34.2900	1066.6675
34.3000	1092.7025
34.3100	1178.0500
34.3200	1238.9950
34.3300	1185.0550
34.3400	1049.8500
34.3500	1055.5775
34.3600	1209.2300
34.3700	1275.9025
34.3800	1231.5700
34.3900	1048.5575
34.4000	1051.6875
34.4100	989.1925
34.4200	915.0550
34.4300	964.4650
34.4400	1073.5175
34.4500	1177.2425
34.4600	1097.0850
34.4700	1195.2150
34.4800	1117.7275
34.4900	929.3075
34.5000	883.3325
34.5100	1037.1300
34.5200	1096.1400
34.5300	1074.4050
34.5400	977.1525
34.5500	988.3350
34.5600	1076.6100
34.5700	959.6525
34.5800	916.6675
34.5900	916.6675
34.6000	840.2850
34.6100	943.8725
34.6200	1097.7325
34.6300	1184.1400
34.6400	1009.6225
34.6500	1102.1875
34.6600	1035.9450
34.6700	1113.9675
34.6800	1099.3850
34.6900	1032.7575
34.7000	940.8600
34.7100	954.5425
34.7200	979.2825
34.7300	1021.1500
34.7400	1096.3150
34.7500	1041.1475
34.7600	1092.1300
34.7700	1104.1000
34.7800	1074.8850
34.7900	1154.5050
34.8000	1083.0225
34.8100	1037.4700
34.8200	1020.8125
34.8300	1079.2175
34.8400	1012.4950
34.8500	1008.3150
34.8600	1004.1850
34.8700	962.5825
34.8800	974.9250
34.8900	1107.8650
34.9000	1187.3300
34.9100	1088.0950
34.9200	1037.5750
34.9300	971.2575
34.9400	1036.8375
34.9500	1079.0625
34.9600	1046.1750
34.9700	971.4500
34.9800	987.1025
34.9900	1037.0725
35.0000	1037.6525
35.0100	872.9300
35.0200	755.0200
35.0300	979.7275
35.0400	1128.2175
35.0500	1125.3975
35.0600	1042.9200
35.0700	1176.3275
35.0800	1036.9775
35.0900	1064.7675
35.1000	1063.2400
35.1100	976.5375
35.1200	827.6575
35.1300	807.7825
35.1400	853.3125
35.1500	952.1050
35.1600	958.9400
35.1700	925.6275
35.1800	965.3750
35.1900	1080.6750
35.2000	1128.8250
35.2100	1072.5900
35.2200	1062.1400
35.2300	1066.6675
35.2400	1018.1850
35.2500	927.3350
35.2600	960.5050
35.2700	947.0575
35.2800	885.0050
35.2900	866.6675
35.3000	939.0475
35.3100	990.7750
35.3200	1084.3100
35.3300	1032.4225
35.3400	1072.1525
35.3500	1136.0475
35.3600	1017.9275
35.3700	954.6700
35.3800	950.0000
35.3900	1021.8675
35.4000	1073.9375
35.4100	1155.0875
35.4200	1159.4350
35.4300	982.8375
35.4400	821.2200
35.4500	819.0975
35.4600	845.2450
35.4700	957.1225
35.4800	1047.5725
35.4900	1173.6175
35.5000	1169.1700
35.5100	1114.4050
35.5200	993.3025
35.5300	961.8450
35.5400	1037.6850
35.5500	995.7050
35.5600	1013.9375
35.5700	1104.1800
35.5800	1109.7350
35.5900	993.8975
35.6000	832.2025
35.6100	806.8750
35.6200	957.7975
35.6300	1087.1750
35.6400	1034.4725
35.6500	1046.9300
35.6600	984.6050
35.6700	1020.2825
35.6800	1073.4075
35.6900	1083.3325
35.7000	989.8500
35.7100	1008.3800
35.7200	1033.3325
35.7300	1010.0200
35.7400	976.7050
35.7500	1117.9650
35.7600	1171.7050
35.7700	1003.9925
35.7800	898.5025
35.7900	987.7400
35.8000	1021.7425
35.8100	924.0100
35.8200	837.0425
35.8300	793.5400
35.8400	887.3175
35.8500	991.0550
35.8600	912.8525
35.8700	1004.9725
35.8800	986.0525
35.8900	915.4800
35.9000	1026.4725
35.9100	956.9650
35.9200	991.8300
35.9300	1056.2725
35.9400	974.9875
35.9500	1082.1900
35.9600	1161.4400
35.9700	1098.0775
35.9800	1043.8225
35.9900	1170.2900
36.0000	1119.2975
36.0100	941.3300
36.0200	883.3325
36.0300	974.3375
36.0400	937.1025
36.0500	888.6425
36.0600	962.7650
36.0700	1034.0150
36.0800	948.0425
36.0900	945.2775
36.1000	966.6675
36.1100	932.7650
36.1200	848.9200
36.1300	940.7675
36.1400	988.7275
36.1500	859.4375
36.1600	878.7775
36.1700	815.4650
36.1800	811.6075
36.1900	1057.8500
36.2000	1189.1000
36.2100	1200.0000
36.2200	1088.0225
36.2300	910.2600
36.2400	861.1800
36.2500	855.4975
36.2600	816.5175
36.2700	766.5475
36.2800	816.8525
36.2900	994.7225
36.3000	933.1875
36.3100	955.5775
36.3200	1000.0000
36.3300	1011.0950
36.3400	972.3225
36.3500	972.1525
36.3600	861.5925
36.3700	866.3475
36.3800	977.3400
36.3900	939.3900
36.4000	877.9400
36.4100	811.5625
36.4200	827.3800
36.4300	927.0150
36.4400	1010.6375
36.4500	1044.3175
36.4600	973.1800
36.4700	801.7525
36.4800	886.7125
36.4900	966.6675
36.5000	999.4775
36.5100	1060.3775
36.5200	1116.0900
36.5300	1046.0600
36.5400	945.5000
36.5500	894.8850
36.5600	937.7400
36.5700	1129.7500
36.5800	1162.3525
36.5900	1155.0400
36.6000	1144.9775
36.6100	1111.6625
36.6200	1035.0450
36.6300	1010.8175
36.6400	1016.6675
36.6500	995.0700
36.6600	907.8125
36.6700	855.8875
36.6800	979.2425
36.6900	996.1950
36.7000	912.9075
36.7100	883.3325
36.7200	969.2000
36.7300	1048.8375
36.7400	1130.9550
36.7500	1038.2000
36.7600	988.0600
36.7700	839.6950
36.7800	782.0325
36.7900	938.6900
36.8000	1027.3250
36.8100	1001.3825
36.8200	1004.6150
36.8300	1069.8250
36.8400	1025.6425
36.8500	898.4275
36.8600	775.7725
36.8700	775.7125
36.8800	979.9525
36.8900	1051.6050
36.9000	991.0650
36.9100	913.8775
36.9200	830.5900
36.9300	958.0900
36.9400	1081.5900
36.9500	1036.8750
36.9600	1000.0000
36.9700	978.9950
36.9800	966.6675
36.9900	945.6975
37.0000	985.7075
37.0100	1100.3925
37.0200	1170.9125
37.0300	1225.1225
37.0400	1156.0575
37.0500	1100.0000
37.0600	1100.0000
37.0700	1027.1250
37.0800	962.5300
37.0900	1012.3525
37.1000	1029.2350
37.1100	975.1700
37.1200	960.3650
37.1300	935.6000
37.1400	927.0125
37.1500	860.9725
37.1600	826.9950
37.1700	977.7975
37.1800	932.6400
37.1900	767.5950
37.2000	840.1625
37.2100	988.6425
37.2200	940.8750
37.2300	842.2775
37.2400	908.9600
37.2500	997.4025
37.2600	1037.1400
37.2700	1060.2275
37.2800	1036.0125
37.2900	986.0400
37.3000	936.0675
37.3100	977.8100
37.3200	986.1225
37.3300	864.9425
37.3400	779.6725
37.3500	888.5150
37.3600	1007.2475
37.3700	891.4325
37.3800	962.0275
37.3900	975.6075
37.4000	886.3425
37.4100	907.0650
37.4200	973.6950
37.4300	969.7575
37.4400	909.7125
37.4500	923.5850
37.4600	970.1075
37.4700	892.9325
37.4800	843.3700
37.4900	789.8425
37.5000	820.1200
37.5100	926.7150
37.5200	976.6650
37.5300	953.3625
37.5400	993.2175
37.5500	1013.3900
37.5600	910.3350
37.5700	879.8600
37.5800	890.0550
37.5900	1022.4300
37.6000	1017.4025
37.6100	930.1650
37.6200	886.9425
37.6300	807.2725
37.6400	727.1075
37.6500	739.5225
37.6600	865.3850
37.6700	962.9225
37.6800	894.6500
37.6900	892.4000
37.7000	992.3475
37.7100	1023.5075
37.7200	947.9450
37.7300	939.2325
37.7400	1005.8650
37.7500	1062.7050
37.7600	946.3975
37.7700	918.4050
37.7800	995.9550
37.7900	889.8650
37.8000	926.6850
37.8100	958.2500
37.8200	858.3050
37.8300	845.8200
37.8400	944.3375
37.8500	1067.8975
37.8600	1058.5225
37.8700	1055.3925
37.8800	986.6075
37.8900	926.3300
37.9000	923.6775
37.9100	849.1475
37.9200	800.0000
37.9300	848.1375
37.9400	921.8075
37.9500	959.6100
37.9600	976.2675
37.9700	954.5600
37.9800	866.2550
37.9900	787.9475
38.0000	699.7150
38.0100	688.2225
38.0200	707.1200
38.0300	719.0750
38.0400	962.0150
38.0500	1152.3725
38.0600	1081.0725
38.0700	950.1575
38.0800	975.9400
38.0900	966.9500
38.1000	897.7175
38.1100	864.4025
38.1200	859.4575
38.1300	866.6675
38.1400	819.4750
38.1500	858.7700
38.1600	954.3500
38.1700	973.9225
38.1800	994.8750
38.1900	1007.2725
38.2000	943.6925
38.2100	900.0000
38.2200	900.0000
38.2300	1021.6525
38.2400	1097.9700
38.2500	961.9150
38.2600	875.9975
38.2700	901.9775
38.2800	916.6675
38.2900	879.4500
38.3000	933.6550
38.3100	1000.0000
38.3200	981.4450
38.3300	892.5200
38.3400	907.4075
38.3500	938.9150
38.3600	861.2175
38.3700	890.5275
38.3800	986.8950
38.3900	906.0900
38.4000	807.4600
38.4100	919.5600
38.4200	970.7275
38.4300	933.3325
38.4400	1006.6950
38.4500	1048.3450
38.4600	1088.2475
38.4700	1151.6200
38.4800	1084.4575
38.4900	1025.7925
38.5000	1005.9825
38.5100	974.2250
38.5200	984.8650
38.5300	972.7300
38.5400	931.8375
38.5500	952.9550
38.5600	992.3975
38.5700	972.8375
38.5800	886.6825
38.5900	770.0775
38.6000	716.6675
38.6100	833.9100
38.6200	897.2925
38.6300	893.6700
38.6400	979.6125
38.6500	1051.3000
38.6600	985.8975
38.6700	961.4950
38.6800	973.1300
38.6900	967.8950
38.7000	983.3325
38.7100	956.5425
38.7200	915.4900
38.7300	917.8250
38.7400	942.2375
38.7500	967.7900
38.7600	1009.9900
38.7700	1059.9650
38.7800	1074.4650
38.7900	1048.9475
38.8000	1015.6325
38.8100	1053.0500
38.8200	1002.8400
38.8300	969.6100
38.8400	990.2225
38.8500	931.4425
38.8600	1058.3550
38.8700	1200.0000
38.8800	1094.6425
38.8900	991.2300
38.9000	1044.6675
38.9100	1135.0125
38.9200	1061.7325
38.9300	879.3100
38.9400	887.2700
38.9500	975.3850
38.9600	974.6250
38.9700	923.1650
38.9800	892.0250
38.9900	960.7800
39.0000	1016.6675
39.0100	1016.6675
39.0200	1059.9500
39.0300	1108.6475
39.0400	1090.7500
39.0500	1023.5150
39.0600	914.3625
39.0700	884.4500
39.0800	976.8925
39.0900	990.3575
39.1000	932.8275
39.1100	968.1325
39.1200	1025.2350
39.1300	1041.8925
39.1400	1041.4500
39.1500	1050.4175
39.1600	1100.8025
39.1700	1184.4825
39.1800	1216.3000
39.1900	1182.9850
39.2000	1149.6700
39.2100	1133.3325
39.2200	1175.7400
39.2300	1267.5000
39.2400	1265.8850
39.2500	1081.3875
39.2600	1034.4625
39.2700	1243.2300
39.2800	1383.5250
39.2900	1391.5800
39.3000	1316.0425
39.3100	1258.4025
39.3200	1224.6975
39.3300	1183.3325
39.3400	1158.2050
39.3500	1166.8050
39.3600	1191.6400
39.3700	1258.4850
39.3800	1299.9675
39.3900	1299.9975
39.4000	1316.6850
39.4100	1191.9000
39.4200	1141.4800
39.4300	1266.3850
39.4400	1233.8625
39.4500	1149.8950
39.4600	1265.9300
39.4700	1366.6675
39.4800	1308.8850
39.4900	1217.0175
39.5000	1273.9425
39.5100	1267.9250
39.5200	1224.2050
39.5300	1266.9100
39.5400	1217.1900
39.5500	1240.6900
39.5600	1267.2600
39.5700	1290.5700
39.5800	1366.3350
39.5900	1269.1050
39.6000	1150.0000
39.6100	1272.1275
39.6200	1416.2675
39.6300	1400.8350
39.6400	1342.3200
39.6500	1340.9875
39.6600	1415.2575
39.6700	1474.7575
39.6800	1459.0900
39.6900	1449.4775
39.7000	1498.9225
39.7100	1533.3325
39.7200	1380.4450
39.7300	1313.1250
39.7400	1376.5200
39.7500	1381.4600
39.7600	1433.3325
39.7700	1457.3450
39.7800	1395.3875
39.7900	1323.9600
39.8000	1334.0450
39.8100	1324.6350
39.8200	1341.2950
39.8300	1365.9050
39.8400	1407.1625
39.8500	1353.9850
39.8600	1314.2250
39.8700	1358.7500
39.8800	1255.0925
39.8900	1236.9050
39.9000	1412.2525
39.9100	1555.1825
39.9200	1663.9150
39.9300	1740.2650
39.9400	1703.8075
39.9500	1460.6550
39.9600	1384.2725
39.9700	1501.0025
39.9800	1412.9250
39.9900	1513.0725
40.0000	1724.4725
40.0100	1686.5475
40.0200	1617.7550
40.0300	1708.9275
40.0400	1895.5075
40.0500	1912.3225
40.0600	1904.2825
40.0700	1920.1900
40.0800	1882.1425
40.0900	1900.0000
40.1000	2046.6925
40.1100	2316.9250
40.1200	2279.2625
40.1300	2130.7800
40.1400	2151.2925
40.1500	2279.2150
40.1600	2465.3400
40.1700	2575.2650
40.1800	2683.3325
40.1900	2752.1275
40.2000	2825.6975
40.2100	2801.4125
40.2200	2829.0425
40.2300	2928.9925
40.2400	3021.3400
40.2500	3226.1175
40.2600	3439.4200
40.2700	3421.2125
40.2800	3427.2050
40.2900	3522.6775
40.3000	3474.4950
40.3100	3571.8825
40.3200	4018.4700
40.3300	4336.0075
40.3400	4249.6700
40.3500	4111.7150
40.3600	4421.6500
40.3700	4740.8250
40.3800	4817.3425
40.3900	5184.0175
40.4000	5578.1275
40.4100	5700.4475
40.4200	6133.4250
40.4300	6789.8750
40.4400	7289.6225
40.4500	7759.6750
40.4600	8430.0675
40.4700	9670.2850
40.4800	10919.9025
40.4900	12041.0100
40.5000	13988.6050
40.5100	16859.8050
40.5200	20305.4200
40.5300	23988.4075
40.5400	28618.2050
40.5500	35304.6950
40.5600	42956.7950
40.5700	50576.0175
40.5800	59282.6350
40.5900	69275.2100
40.6000	78320.0250
40.6100	86026.5825
40.6200	92841.3200
40.6300	96728.3375
40.6400	97279.2450
40.6500	93945.8750
40.6600	88557.9200
40.6700	83023.7025
40.6800	76682.1550
40.6900	70683.5425
40.7000	67010.1375
40.7100	63466.3850
40.7200	60636.0475
40.7300	58793.3900
40.7400	55727.1875
40.7500	51207.5800
40.7600	45879.4225
40.7700	40291.1050
40.7800	34029.7150
40.7900	28265.7450
40.8000	23877.1300
40.8100	19855.2275
40.8200	16118.1500
40.8300	13169.6225
40.8400	11275.2375
40.8500	9769.9875
40.8600	8443.5350
40.8700	7771.2100
40.8800	7193.7725
40.8900	6665.9725
40.9000	6257.8675
40.9100	5893.7000
40.9200	5697.1725
40.9300	5421.0000
40.9400	5189.5300
40.9500	4950.2550
40.9600	4661.7300
40.9700	4432.8175
40.9800	4246.8750
40.9900	4003.6100
41.0000	3688.5975
41.0100	3387.2925
41.0200	3231.9550
41.0300	3313.8750
41.0400	3222.4625
41.0500	2955.9300
41.0600	2717.0475
41.0700	2669.0450
41.0800	2697.7050
41.0900	2572.4475
41.1000	2492.0550
41.1100	2392.1050
41.1200	2319.6075
41.1300	2190.3225
41.1400	2005.9475
41.1500	1877.7675
41.1600	1736.3400
41.1700	1634.8050
41.1800	1489.4125
41.1900	1511.2475
41.2000	1600.0000
41.2100	1633.9450
41.2200	1608.7475
41.2300	1506.7725
41.2400	1591.0700
41.2500	1693.2450
41.2600	1615.8575
41.2700	1530.1450
41.2800	1516.3450
41.2900	1459.9450
41.3000	1416.4275
41.3100	1373.3725
41.3200	1383.3325
41.3300	1403.4025
41.3400	1373.1975
41.3500	1276.6600
41.3600	1353.3150
41.3700	1536.5900
41.3800	1556.8275
41.3900	1400.2600
41.4000	1379.5900
41.4100	1440.3825
41.4200	1283.8400
41.4300	1242.8050
41.4400	1313.5350
41.4500	1250.3750
41.4600	1200.0000
41.4700	1252.6025
41.4800	1274.2300
41.4900	1222.6875
41.5000	1237.4800
41.5100	1160.1250
41.5200	1261.0825
41.5300	1400.7025
41.5400	1330.4450
41.5500	1339.0600
41.5600	1439.0100
41.5700	1441.5575
41.5800	1343.5150
41.5900	1300.9475
41.6000	1159.4325
41.6100	1126.5025
41.6200	1364.5275
41.6300	1408.6650
41.6400	1265.1750
41.6500	1138.3350
41.6600	1015.3050
41.6700	997.4550
41.6800	1164.0400
41.6900	1253.8750
41.7000	1239.7200
41.7100	1218.1025
41.7200	1141.1800
41.7300	1119.0900
41.7400	1137.2900
41.7500	1110.3200
41.7600	1125.3575
41.7700	1154.0050
41.7800	1152.3025
41.7900	1240.1675
41.8000	1263.9600
41.8100	1162.5975
41.8200	1151.8800
41.8300	1143.9775
41.8400	1135.1000
41.8500	1031.3325
41.8600	1120.8825
41.8700	1220.8350
41.8800	1245.8800
41.8900	1139.6950
41.9000	1104.0225
41.9100	1129.3575
41.9200	1091.5075
41.9300	1151.9400
41.9400	1164.7525
41.9500	1151.8900
41.9600	1220.4000
41.9700	1252.4850
41.9800	1224.6475
41.9900	1278.9750
42.0000	1250.8350
42.0100	1093.0150
42.0200	1052.4800
42.0300	1151.0275
42.0400	1060.5525
42.0500	1074.4225
42.0600	1110.5700
42.0700	1112.1800
42.0800	1090.7625
42.0900	986.3000
42.1000	951.5300
42.1100	946.9875
42.1200	889.3825
42.1300	972.4975
42.1400	1087.9325
42.1500	1018.4625
42.1600	921.2975
42.1700	930.0475
42.1800	971.3300
42.1900	926.0250
42.2000	913.2600
42.2100	948.7350
42.2200	952.4850
42.2300	1010.7050
42.2400	1041.6750
42.2500	1116.6675
42.2600	1128.5425
42.2700	1138.1400
42.2800	1140.3550
42.2900	1153.7625
42.3000	1159.0600
42.3100	1231.2775
42.3200	1160.7775
42.3300	1102.9425
42.3400	1034.2900
42.3500	1101.8650
42.3600	1119.8000
42.3700	1062.5850
42.3800	1122.5100
42.3900	1115.8300
42.4000	1071.6800
42.4100	1026.7250
42.4200	977.5225
42.4300	1030.5000
42.4400	1144.2050
42.4500	1156.4825
42.4600	1142.2075
42.4700	1044.8750
42.4800	1118.5375
42.4900	1182.1325
42.5000	1133.9100
42.5100	1120.7475
42.5200	1016.1375
42.5300	983.3325
42.5400	1029.0625
42.5500	1145.2075
42.5600	1182.8975
42.5700	1138.6150
42.5800	1093.9275
42.5900	1050.0000
42.6000	1061.3375
42.6100	1072.0100
42.6200	1083.9200
42.6300	1127.4175
42.6400	1088.9700
42.6500	1015.5525
42.6600	906.2200
42.6700	1050.3525
42.6800	1111.0600
42.6900	1094.4025
42.7000	1072.1525
42.7100	1044.4175
42.7200	977.5825
42.7300	916.7725
42.7400	1011.1075
42.7500	1005.5525
42.7600	1005.5800
42.7700	933.5100
42.7800	877.5575
42.7900	994.2675
42.8000	1033.4625
42.8100	972.4750
42.8200	938.6550
42.8300	961.3775
42.8400	894.7400
42.8500	871.8950
42.8600	905.7350
42.8700	987.0375
42.8800	1156.3975
42.8900	1072.1100
42.9000	1088.7675
42.9100	1072.8650
42.9200	978.7325
42.9300	932.4700
42.9400	1016.2100
42.9500	1012.2275
42.9600	906.3925
42.9700	871.5225
42.9800	927.4125
42.9900	912.4450
43.0000	876.1925
43.0100	982.7150
43.0200	989.9575
43.0300	965.3375
43.0400	1054.6400
43.0500	1131.9125
43.0600	1130.9575
43.0700	1031.0625
43.0800	1090.9700
43.0900	1015.8625
43.1000	1060.5600
43.1100	1078.0600
43.1200	1050.8725
43.1300	1011.4100
43.1400	1020.9975
43.1500	1045.7000
43.1600	1015.7025
43.1700	1055.2275
43.1800	1030.1375
43.1900	918.7350
43.2000	839.5925
43.2100	827.0575
43.2200	855.1875
43.2300	887.3875
43.2400	933.3325
43.2500	948.8275
43.2600	988.4900
43.2700	958.8025
43.2800	918.0875
43.2900	976.8550
43.3000	870.5075
43.3100	947.3800
43.3200	970.6650
43.3300	881.9775
43.3400	906.4750
43.3500	929.1300
43.3600	1048.5750
43.3700	1047.8200
43.3800	997.0600
43.3900	1005.9700
43.4000	846.4650
43.4100	860.5150
43.4200	1020.1400
43.4300	1071.6950
43.4400	1033.1325
43.4500	916.6675
43.4600	926.6775
43.4700	945.0025
43.4800	908.3850
43.4900	869.9275
43.5000	926.6150
43.5100	920.1975
43.5200	889.6750
43.5300	1032.8525
43.5400	1105.5025
43.5500	980.2525
43.5600	943.1925
43.5700	951.9025
43.5800	916.6675
43.5900	931.3850
43.6000	971.5650
43.6100	973.5500
43.6200	974.4200
43.6300	1062.5900
43.6400	1084.6450
43.6500	937.5000
43.6600	852.1050
43.6700	816.6675
43.6800	826.3450
43.6900	821.0125
43.7000	774.1175
43.7100	944.1050
43.7200	1173.3900
43.7300	1042.6600
43.7400	954.5725
43.7500	878.5475
43.7600	842.7725
43.7700	802.4175
43.7800	878.5825
43.7900	907.1950
43.8000	823.7425
43.8100	911.7800
43.8200	1007.0025
43.8300	1033.5825
43.8400	883.9375
43.8500	716.6675
43.8600	721.3700
43.8700	738.0300
43.8800	764.0675
43.8900	823.4075
43.9000	864.6375
43.9100	830.6675
43.9200	903.9400
43.9300	986.0450
43.9400	945.3550
43.9500	896.2400
43.9600	781.4825
43.9700	784.1750
43.9800	875.1350
43.9900	803.5225
44.0000	959.7950
44.0100	1093.7050
44.0200	992.0700
44.0300	906.2200
44.0400	939.2450
44.0500	852.9775
44.0600	821.2225
44.0700	837.8800
44.0800	881.7825
44.0900	971.2000
44.1000	969.7550
44.1100	915.2600
44.1200	884.7100
44.1300	937.8375
44.1400	1003.9550
44.1500	1078.1775
44.1600	869.8900
44.1700	860.1775
44.1800	924.4000
44.1900	859.8650
44.2000	785.6175
44.2100	927.7800
44.2200	1010.0625
44.2300	900.0000
44.2400	944.2275
44.2500	1066.6675
44.2600	1022.5875
44.2700	886.7975
44.2800	876.3600
44.2900	923.6825
44.3000	845.6225
44.3100	807.1050
44.3200	715.8775
44.3300	710.2350
44.3400	842.0325
44.3500	857.9825
44.3600	885.3525
44.3700	1003.0400
44.3800	895.0650
44.3900	889.4025
44.4000	1032.7775
44.4100	966.1400
44.4200	873.7550
44.4300	745.7150
44.4400	758.9925
44.4500	829.0650
44.4600	808.1425
44.4700	766.3150
44.4800	750.6475
44.4900	854.2400
44.5000	908.9975
44.5100	999.5275
44.5200	878.9075
44.5300	799.8200
44.5400	787.8375
44.5500	904.1975
44.5600	862.2000
44.5700	741.8250
44.5800	845.7900
44.5900	816.6775
44.6000	904.1850
44.6100	845.8975
44.6200	779.1875
44.6300	799.7800
44.6400	883.4725
44.6500	858.0825
44.6600	916.8625
44.6700	866.6675
44.6800	854.3575
44.6900	833.0500
44.7000	854.7125
44.7100	758.5025
44.7200	741.4825
44.7300	766.6675
44.7400	770.7275
44.7500	807.6500
44.7600	879.2875
44.7700	862.6275
44.7800	862.0950
44.7900	891.9525
44.8000	850.5975
44.8100	832.0800
44.8200	961.3550
44.8300	998.0550
44.8400	841.3100
44.8500	826.8525
44.8600	715.8975
44.8700	742.8625
44.8800	698.3475
44.8900	803.9525
44.9000	792.9900
44.9100	728.4825
44.9200	762.7350
44.9300	777.4725
44.9400	854.9150
44.9500	836.2200
44.9600	864.8700
44.9700	730.5175
44.9800	670.5550
44.9900	718.2725
45.0000	806.2075
45.0100	705.0625
45.0200	705.2750
45.0300	833.3325
45.0400	821.7925
45.0500	775.6550
45.0600	772.9950
45.0700	838.5225
45.0800	780.9075
45.0900	747.1575
45.1000	830.9775
45.1100	747.6800
45.1200	702.2850
45.1300	766.6675
45.1400	796.8775
45.1500	911.3075
45.1600	957.5250
45.1700	975.8225
45.1800	938.7550
45.1900	881.2950
45.2000	839.0725
45.2100	942.7575
45.2200	1022.1725
45.2300	953.6275
45.2400	824.0575
45.2500	748.1300
45.2600	777.8475
45.2700	744.2225
45.2800	870.5750
45.2900	781.3525
45.3000	833.3325
45.3100	833.3325
45.3200	844.2850
45.3300	872.4025
45.3400	826.0600
45.3500	800.0000
45.3600	807.2450
45.3700	800.7925
45.3800	694.1600
45.3900	736.9350
45.4000	753.5950
45.4100	763.0800
45.4200	750.0000
45.4300	753.5750
45.4400	791.6375
45.4500	869.0925
45.4600	809.5600
45.4700	797.5200
45.4800	846.4600
45.4900	819.2025
45.5000	777.2425
45.5100	837.7800
45.5200	916.6675
45.5300	895.6375
45.5400	806.1725
45.5500	780.6325
45.5600	833.3325
45.5700	833.3325
45.5800	843.7450
45.5900	872.9425
45.6000	809.1350
45.6100	720.1175
45.6200	719.5600
45.6300	673.5400
45.6400	730.8650
45.6500	829.4650
45.6600	770.4950
45.6700	829.5475
45.6800	736.3925
45.6900	676.5425
45.7000	663.5525
45.7100	733.5750
45.7200	789.8750
45.7300	760.1050
45.7400	810.0825
45.7500	833.2275
45.7600	773.3625
45.7700	813.3625
45.7800	863.3325
45.7900	826.7100
45.8000	736.6525
45.8100	763.2550
45.8200	793.5200
45.8300	696.7000
45.8400	693.2125
45.8500	749.7650
45.8600	796.9875
45.8700	726.4850
45.8800	756.8675
45.8900	726.4450
45.9000	769.9200
45.9100	806.0550
45.9200	906.4775
45.9300	904.2425
45.9400	773.6575
45.9500	717.2375
45.9600	662.8500
45.9700	739.1050
45.9800	823.7375
45.9900	738.6450
46.0000	565.9275
46.0100	649.2275
46.0200	732.5250
46.0300	762.0175
46.0400	596.8425
46.0500	624.3075
46.0600	800.0000
46.0700	818.8300
46.0800	890.6050
46.0900	831.2500
46.1000	753.1175
46.1100	782.2250
46.1200	846.8950
46.1300	811.6450
46.1400	732.1250
46.1500	793.8300
46.1600	769.7450
46.1700	786.4050
46.1800	803.0650
46.1900	798.3175
46.2000	744.1325
46.2100	887.9825
46.2200	959.0250
46.2300	828.7775
46.2400	739.3850
46.2500	784.7775
46.2600	854.6200
46.2700	778.9625
46.2800	683.3325
46.2900	674.3575
46.3000	648.2600
46.3100	740.4975
46.3200	867.8350
46.3300	917.3775
46.3400	772.5850
46.3500	800.0000
46.3600	785.2700
46.3700	722.5450
46.3800	764.6650
46.3900	842.1125
46.4000	874.5750
46.4100	818.7675
46.4200	732.5600
46.4300	673.2000
46.4400	792.0125
46.4500	836.2200
46.4600	838.4775
46.4700	771.8375
46.4800	708.0650
46.4900	689.5525
46.5000	805.7075
46.5100	816.2475
46.5200	733.3325
46.5300	741.8375
46.5400	780.5050
46.5500	766.6675
46.5600	735.7000
46.5700	588.9500
46.5800	633.4800
46.5900	739.0325
46.6000	852.7900
46.6100	833.2750
46.6200	677.7725
46.6300	744.4125
46.6400	788.9475
46.6500	747.1175
46.6600	811.1650
46.6700	788.8200
46.6800	811.1925
46.6900	783.3325
46.7000	775.1600
46.7100	738.7700
46.7200	761.2425
46.7300	746.8600
46.7400	816.6675
46.7500	795.1275
46.7600	680.6475
46.7700	677.3850
46.7800	730.6600
46.7900	727.3325
46.8000	785.9925
46.8100	768.1550
46.8200	602.6475
46.8300	648.3575
46.8400	806.1275
46.8500	742.1150
46.8600	713.1075
46.8700	783.3325
46.8800	788.5525
46.8900	803.6525
46.9000	730.7375
46.9100	711.4875
46.9200	696.2500
46.9300	771.8200
46.9400	789.7175
46.9500	720.5125
46.9600	670.4650
46.9700	770.5750
46.9800	700.0000
46.9900	702.5400
47.0000	731.8625
47.0100	798.9825
47.0200	710.0800
47.0300	771.6950
47.0400	774.9250
47.0500	663.3450
47.0600	833.3325
47.0700	825.8675
47.0800	780.8500
47.0900	764.1900
47.1000	745.0600
47.1100	721.5925
47.1200	745.0850
47.1300	726.4700
47.1400	773.5550
47.1500	697.1625
47.1600	573.6050
47.1700	533.6450
47.1800	638.1725
47.1900	666.6675
47.2000	666.6675
47.2100	649.8625
47.2200	547.6050
47.2300	564.3775
47.2400	757.1450
47.2500	790.4975
47.2600	735.7025
47.2700	745.2750
47.2800	716.6675
47.2900	730.7700
47.3000	786.1900
47.3100	595.3225
47.3200	606.3100
47.3300	833.7200
47.3400	731.0125
47.3500	693.5325
47.3600	577.6875
47.3700	766.1075
47.3800	864.3725
47.3900	850.0000
47.4000	831.7400
47.4100	716.6675
47.4200	707.5850
47.4300	643.2075
47.4400	615.8050
47.4500	739.1825
47.4600	883.3325
47.4700	858.7000
47.4800	697.7675
47.4900	705.6050
47.5000	838.8950
47.5100	755.5925
47.5200	656.8300
47.5300	505.3600
47.5400	654.3925
47.5500	683.3325
47.5600	687.7025
47.5700	712.3100
47.5800	689.8500
47.5900	729.0025
47.6000	691.3600
47.6100	637.6400
47.6200	675.2575
47.6300	726.9100
47.6400	674.7925
47.6500	623.0550
47.6600	664.5425
47.6700	647.8825
47.6800	658.6675
47.6900	835.4375
47.7000	841.6050
47.7100	781.2400
47.7200	766.6675
47.7300	760.4250
47.7400	722.8900
47.7500	779.0800
47.7600	870.7925
47.7700	916.4525
47.7800	1008.7250
47.7900	843.5575
47.8000	902.3950
47.8100	769.5100
47.8200	570.2650
47.8300	734.8525
47.8400	856.5925
47.8500	789.3600
47.8600	833.3325
47.8700	835.3300
47.8800	848.0100
47.8900	833.3325
47.9000	819.4825
47.9100	726.5300
47.9200	794.1000
47.9300	748.0400
47.9400	758.7450
47.9500	955.8475
47.9600	1015.5425
47.9700	1119.7750
47.9800	1022.4600
47.9900	1087.8425
48.0000	1244.2425
48.0100	1203.8275
48.0200	1248.5900
48.0300	1378.0750
48.0400	1430.6550
48.0500	1148.1100
48.0600	1133.3325
48.0700	1122.0675
48.0800	1014.6175
48.0900	881.5925
48.1000	986.9800
48.1100	922.2675
48.1200	1233.3325
48.1300	1220.4375
48.1400	1116.6675
48.1500	1113.0050
48.1600	1074.2100
48.1700	1000.0000
48.1800	998.1875
48.1900	979.7200
48.2000	928.3875
48.2100	767.9525
48.2200	929.1925
48.2300	1024.4150
48.2400	934.0000
48.2500	796.4575
48.2600	761.3675
48.2700	721.9475
48.2800	766.6675
48.2900	780.6550
48.3000	893.0300
48.3100	821.1750
48.3200	730.5150
48.3300	841.3750
48.3400	775.2625
48.3500	844.8600
48.3600	794.8775
48.3700	750.0000
48.3800	746.6075
48.3900	708.2150
48.4000	645.1250
48.4100	746.6425
48.4200	714.9925
48.4300	684.9950
48.4400	559.9700
48.4500	656.6225
48.4600	726.5675
48.4700	815.0225
48.4800	811.4700
48.4900	906.8700
48.5000	806.9050
48.5100	726.3950
48.5200	816.6675
48.5300	811.8375
48.5400	763.4575
48.5500	742.9225
48.5600	833.3325
48.5700	831.7475
48.5800	818.2475
48.5900	812.8525
48.6000	627.6550
48.6100	733.3325
48.6200	730.2175
48.6300	703.1050
48.6400	730.2400
48.6500	707.7075
48.6600	791.0100
48.6700	862.0775
48.6800	810.5700
48.6900	746.9625
48.7000	715.1550
48.7100	707.5350
48.7200	775.8250
48.7300	700.0000
48.7400	708.9425
48.7500	795.5475
48.7600	742.6050
48.7700	662.2475
48.7800	626.9400
48.7900	742.1050
48.8000	821.6825
48.8100	702.9025
48.8200	739.1150
48.8300	789.9225
48.8400	693.3700
48.8500	800.0000
48.8600	798.5775
48.8700	783.3325
48.8800	788.9800
48.8900	830.3175
48.9000	622.2675
48.9100	701.4650
48.9200	883.3300
48.9300	690.3150
48.9400	602.6250
48.9500	824.9000
48.9600	907.1000
48.9700	809.5275
48.9800	907.1775
48.9900	786.5000
49.0000	630.6450
49.0100	604.0175
49.0200	644.6650
49.0300	589.9725
49.0400	667.9900
49.0500	683.3325
49.0600	688.5775
49.0700	752.6125
49.0800	765.1300
49.0900	564.2425
49.1000	734.6225
49.1100	750.0000
49.1200	766.6175
49.1300	947.5750
49.1400	717.9350
49.1500	740.9025
49.1600	832.0775
49.1700	806.6600
49.1800	690.8050
49.1900	794.4900
49.2000	928.3975
49.2100	860.5225
49.2200	774.7700
49.2300	680.0625
49.2400	848.7875
49.2500	832.1275
49.2600	820.2700
49.2700	855.9025
49.2800	707.1425
49.2900	583.3325
49.3000	589.2325
49.3100	661.9700
49.3200	600.0000
49.3300	608.1450
49.3400	725.9300
49.3500	848.8475
49.3600	835.6275
49.3700	860.9575
49.3800	775.3800
49.3900	668.9275
49.4000	709.0050
49.4100	832.2125
49.4200	816.6675
49.4300	807.7925
49.4400	674.5025
49.4500	559.8875
49.4600	704.3725
49.4700	777.5450
49.4800	930.0850
49.4900	877.9475
49.5000	804.2875
49.5100	878.3950
49.5200	1038.3300
49.5300	857.1650
49.5400	706.1650
49.5500	560.4500
49.5600	722.9050
49.5700	822.8725
49.5800	916.6675
49.5900	906.4300
49.6000	754.0725
49.6100	823.7575
49.6200	920.2350
49.6300	719.6725
49.6400	764.6725
49.6500	738.2925
49.6600	820.6125
49.6700	888.2375
49.6800	963.7400
49.6900	914.7250
49.7000	889.1250
49.7100	977.5750
49.7200	885.2425
49.7300	914.7675
49.7400	885.2225
49.7500	926.0550
49.7600	1069.3300
49.7700	836.1175
49.7800	883.3325
49.7900	892.5100
49.8000	1059.1250
49.8100	1208.5025
49.8200	1071.1775
49.8300	1153.5875
49.8400	1213.1000
49.8500	1152.6600
49.8600	1204.4050
49.8700	1285.0850
49.8800	1314.0550
49.8900	1264.9350
49.9000	1235.9150
49.9100	1276.4925
49.9200	1161.0475
49.9300	1365.8225
49.9400	1347.4825
49.9500	1297.4975
49.9600	1255.8025
49.9700	1383.1425
49.9800	1695.9075
49.9900	1619.9200
50.0000	1686.5675
50.0100	1757.2275
50.0200	1898.4050
50.0300	1870.6300
50.0400	1950.0000
50.0500	1953.9125
50.0600	2041.8825
50.0700	2219.7550
50.0800	2288.7025
50.0900	2395.4300
50.1000	2315.8900
50.1100	2671.0425
50.1200	3120.3975
50.1300	3205.9300
50.1400	3342.9025
50.1500	3591.6675
50.1600	4526.1325
50.1700	5123.0650
50.1800	5672.6950
50.1900	6591.2125
50.2000	7572.4000
50.2100	8883.7600
50.2200	10097.3000
50.2300	11680.5475
50.2400	14385.1775
50.2500	16051.3350
50.2600	17714.7925
50.2700	19312.9675
50.2800	20834.6150
50.2900	21255.4525
50.3000	20966.3125
50.3100	20495.4350
50.3200	19109.3950
50.3300	18041.8075
50.3400	16507.8375
50.3500	14579.2300
50.3600	14018.7825
50.3700	13224.7175
50.3800	13425.9625
50.3900	13219.3200
50.4000	12861.4800
50.4100	13154.6825
50.4200	12802.4375
50.4300	11951.9375
50.4400	11521.3775
50.4500	10702.0625
50.4600	9788.5525
50.4700	8497.4800
50.4800	7445.5375
50.4900	6342.6250
50.5000	5626.7275
50.5100	4921.4450
50.5200	4072.9950
50.5300	3755.3450
50.5400	3407.0525
50.5500	3105.5525
50.5600	2753.0375
50.5700	2335.9300
50.5800	2414.0950
50.5900	2328.7500
50.6000	2176.2725
50.6100	1945.5050
50.6200	1795.5500
50.6300	1651.9575
50.6400	1713.2750
50.6500	1605.7550
50.6600	1799.0500
50.6700	1757.2700
50.6800	1428.2200
50.6900	1248.1600
50.7000	1185.1525
50.7100	1254.5025
50.7200	1409.9875
50.7300	1163.5850
50.7400	1054.7900
50.7500	1233.7650
50.7600	1246.1700
50.7700	1103.3650
50.7800	1237.4925
50.7900	1390.1375
50.8000	999.1875
50.8100	966.6675
50.8200	967.4600
50.8300	1001.9575
50.8400	1082.5600
50.8500	1045.0375
50.8600	834.0875
50.8700	866.6675
50.8800	865.9325
50.8900	832.6075
50.9000	803.2175
50.9100	948.5900
50.9200	880.9000
50.9300	764.2650
50.9400	652.3675
50.9500	767.6675
50.9600	817.6525
50.9700	865.0475
50.9800	784.9275
50.9900	866.0375
51.0000	832.7150
51.0100	799.6950
51.0200	782.7350
51.0300	748.2300
51.0400	649.7100
51.0500	636.4700
51.0600	816.3850
51.0700	799.7250
51.0800	783.0625
51.0900	768.2625
51.1000	866.6675
51.1100	866.1525
51.1200	831.8225
51.1300	733.3325
51.1400	733.0900
51.1500	717.8550
51.1600	798.1375
51.1700	669.6300
51.1800	881.3250
51.1900	733.3325
51.2000	735.9000
51.2100	932.2875
51.2200	849.3875
51.2300	800.0000
51.2400	799.6100
51.2500	765.3350
51.2600	649.6300
51.2700	617.2100
51.2800	666.6675
51.2900	667.6950
51.3000	766.5000
51.3100	749.8375
51.3200	733.3325
51.3300	732.8750
51.3400	682.5950
51.3500	599.7125
51.3600	568.8825
51.3700	832.7975
51.3800	766.6675
51.3900	765.7950
51.4000	650.4800
51.4100	717.0125
51.4200	766.6675
51.4300	765.9250
51.4400	651.0125
51.4500	815.9900
51.4600	699.8150
51.4700	667.1900
51.4800	765.8400
51.4900	600.1550
51.5000	633.3325
51.5100	633.3325
51.5200	633.3975
51.5300	650.5350
51.5400	799.6700
51.5500	699.9000
51.5600	666.7575
51.5700	699.8350
51.5800	633.4075
51.5900	666.6350
51.6000	650.1100
51.6100	716.7575
51.6200	783.3875
51.6300	833.3325
51.6400	833.2350
51.6500	649.9950
51.6600	633.3325
51.6700	683.3200
51.6800	866.5650
51.6900	850.0150
51.7000	750.1100
51.7100	700.0700
51.7200	633.4425
51.7300	533.5250
51.7400	666.3750
51.7500	832.9225
51.7600	733.6075
51.7700	716.7175
51.7800	650.2200
51.7900	699.8225
51.8000	766.4125
51.8100	866.2575
51.8200	816.8850
51.8300	800.0775
51.8400	717.0750
51.8500	666.9250
51.8600	633.5150
51.8700	699.6175
51.8800	700.0000
51.8900	633.7500
51.9000	649.8900
51.9100	683.1075
51.9200	699.8825
51.9300	716.5450
51.9400	683.5875
51.9500	650.2625
51.9600	716.1250
51.9700	716.6675
51.9800	667.1000
51.9900	650.1500
52.0000	616.9725
52.0100	534.1225
52.0200	615.8550
52.0300	649.6675
52.0400	715.9825
52.0500	617.7200
52.0600	699.1000
52.0700	584.6250
52.0800	566.8550
52.0900	649.0325
52.1000	666.4700
52.1100	650.2025
52.1200	518.3200
52.1300	582.4900
52.1400	632.6875
52.1500	715.5675
52.1600	749.5525
52.1700	700.6850
52.1800	535.6625
52.1900	664.7675
52.2000	715.9425
52.2100	798.7700
52.2200	635.8375
52.2300	584.0975
52.2400	648.9625
52.2500	518.7750
52.2600	746.2500
52.2700	618.8450
52.2800	616.6675
52.2900	649.4375
52.3000	650.0000
52.3100	584.4925
52.3200	534.2150
52.3300	647.9125
52.3400	600.9075
52.3500	485.4825
52.3600	499.6875
52.3700	647.1600
52.3800	682.6925
52.3900	601.6200
52.4000	665.3525
52.4100	601.3325
52.4200	600.0000
52.4300	681.6250
52.4400	683.3325
52.4500	601.7500
52.4600	795.7475
52.4700	604.3025
52.4800	600.0000
52.4900	551.1025
52.5000	533.7050
52.5100	598.4975
52.5200	714.0075
52.5300	814.3625
52.5400	767.8325
52.5500	685.2975
52.5600	504.3675
52.5700	548.7975
52.5800	517.4775
52.5900	597.9525
52.6000	600.0000
52.6100	681.2425
52.6200	699.5775
52.6300	553.8400
52.6400	598.7075
52.6500	697.3900
52.6600	602.6350
52.6700	600.0000
52.6800	567.5625
52.6900	550.4525
52.7000	614.8425
52.7100	649.0800
52.7200	650.0000
52.7300	617.6050
52.7400	503.3100
52.7500	516.1900
52.7600	565.2225
52.7700	615.2100
52.7800	616.6675
52.7900	632.8400
52.8000	536.3200
52.8100	597.9925
52.8200	567.6800
52.8300	615.1350
52.8400	568.2100
52.8500	566.6675
52.8600	615.0975
52.8700	648.9450
52.8800	633.8650
52.8900	584.9400
52.9000	680.0975
52.9100	699.4575
52.9200	506.5725
52.9300	564.4600
52.9400	647.2200
52.9500	633.8925
52.9600	568.9225
52.9700	663.2575
52.9800	537.9125
52.9900	452.8825
53.0000	498.2575
53.0100	596.4925
53.0200	519.6100
53.0300	484.5200
53.0400	531.5425
53.0500	453.0050
53.0600	546.3700
53.0700	437.5975
53.0800	497.5475
53.0900	660.4925
53.1000	650.6225
53.1100	585.8350
53.1200	631.4450
53.1300	697.4650
53.1400	716.0300
53.1500	572.4425
53.1600	534.6250
53.1700	581.3850
53.1800	599.3450
53.1900	680.0450
53.2000	715.3425
53.2100	652.6625
53.2200	618.0075
53.2300	488.7250
53.2400	595.2550
53.2500	568.0300
53.2600	566.6675
53.2700	646.5500
53.2800	586.1100
53.2900	583.3325
53.3000	679.1225
53.3100	683.3325
53.3200	603.5500
53.3300	536.1900
53.3400	549.2825
53.3500	581.8900
53.3600	567.3925
53.3700	550.7300
53.3800	502.2025
53.3900	611.5025
53.4000	600.7425
53.4100	631.8425
53.4200	665.1675
53.4300	634.8400
53.4400	633.3325
53.4500	617.4275
53.4600	600.7650
53.4700	600.0000
53.4800	552.3200
53.4900	693.0050
53.5000	636.4575
53.5100	680.9775
53.5200	540.4350
53.5300	533.3325
53.5400	644.4225
53.5500	729.3300
53.5600	638.1625
53.5700	569.9000
53.5800	519.1050
53.5900	532.5175
53.6000	628.4125
53.6100	649.1750
53.6200	602.4850
53.6300	600.0000
53.6400	600.0000
53.6500	425.9025
53.6600	479.9600
53.6700	451.6950
53.6800	465.8150
53.6900	435.0425
53.7000	638.8325
53.7100	570.9800
53.7200	519.2675
53.7300	595.6475
53.7400	552.6225
53.7500	565.7875
53.7600	519.3125
53.7700	469.3250
53.7800	513.9975
53.7900	532.4400
53.8000	627.9500
53.8100	617.5675
53.8200	585.1425
53.8300	504.5450
53.8400	484.2450
53.8500	609.3350
53.8600	553.6800
53.8700	644.4550
53.8800	697.2175
53.8900	589.8550
53.9000	677.7200
53.9100	872.0625
53.9200	757.5450
53.9300	577.0825
53.9400	598.1000
53.9500	631.4250
53.9600	570.5000
53.9700	550.9625
53.9800	550.0000
53.9900	612.7900
54.0000	522.5050
54.0100	438.2175
54.0200	511.7625
54.0300	595.0775
54.0400	537.2850
54.0500	501.9850
54.0600	641.0375
54.0700	712.6700
54.0800	701.0025
54.0900	621.7000
54.1000	460.1050
54.1100	481.3050
54.1200	498.9825
54.1300	500.0000
54.1400	531.2825
54.1500	470.7825
54.1600	451.0325
54.1700	559.4100
54.1800	691.6775
54.1900	559.3950
54.2000	596.8575
54.2100	646.8450
54.2200	525.1075
54.2300	485.4500
54.2400	483.3325
54.2500	405.3300
54.2600	462.3875
54.2700	529.0400
54.2800	611.2825
54.2900	632.2525
54.3000	602.1700
54.3100	677.8925
54.3200	698.9075
54.3300	528.7150
54.3400	501.1000
54.3500	655.6400
54.3600	666.6675
54.3700	588.8825
54.3800	645.5450
54.3900	603.3525
54.4000	600.0000
54.4100	662.1700
54.4200	557.8950
54.4300	518.9300
54.4400	687.5125
54.4500	622.3600
54.4600	616.6675
54.4700	632.1875
54.4800	571.2650
54.4900	628.7200
54.5000	617.8225
54.5100	523.6300
54.5200	578.6775
54.5300	738.3250
54.5400	610.5400
54.5500	677.4600
54.5600	698.8225
54.5700	700.0000
54.5800	576.1500
54.5900	489.2775
54.6000	560.7050
54.6100	597.6075
54.6200	615.4675
54.6300	647.5925
54.6400	665.4600
54.6500	589.3850
54.6600	552.4275
54.6700	565.4500
54.6800	535.7750
54.6900	548.7750
54.7000	565.4375
54.7100	643.8425
54.7200	619.1375
54.7300	539.5250
54.7400	610.4575
54.7500	524.1400
54.7600	485.8325
54.7700	421.6775
54.7800	586.1825
54.7900	584.5925
54.8000	644.9475
54.8100	573.0000
54.8200	674.4425
54.8300	698.7275
54.8400	700.0000
54.8500	576.9100
54.8600	535.9000
54.8700	564.0925
54.8800	551.2900
54.8900	503.8825
54.9000	607.5825
54.9100	632.0325
54.9200	633.3325
54.9300	633.3325
54.9400	587.2675
54.9500	506.5750
54.9600	546.0450
54.9700	580.6900
54.9800	583.3325
54.9900	598.6725
55.0000	538.6625
55.0100	472.0100
55.0200	589.2875
55.0300	645.9725
55.0400	604.0375
55.0500	554.0475
55.0600	687.8275
55.0700	592.8250
55.0800	491.4900
55.0900	498.6375
55.1000	637.7050
55.1100	604.1100
55.1200	538.8250
55.1300	579.2050
55.1400	568.0475
55.1500	612.5175
55.1600	509.7050
55.1700	500.0000
55.1800	576.3675
55.1900	598.6025
55.2000	554.2000
55.2100	580.5275
55.2200	598.5925
55.2300	676.2825
55.2400	622.3200
55.2500	601.4175
55.2600	584.7525
55.2700	659.5500
55.2800	590.4675
55.2900	613.8075
55.3000	647.1325
55.3100	482.4700
55.3200	588.4800
55.3300	691.3400
55.3400	684.7800
55.3500	622.4675
55.3600	601.4525
55.3700	676.0500
55.3800	546.4725
55.3900	639.7575
55.4000	680.4000
55.4100	485.7750
55.4200	466.6675
55.4300	527.4275
55.4400	442.2100
55.4500	600.3550
55.4600	662.2075
55.4700	742.5525
55.4800	689.3050
55.4900	622.6500
55.5000	571.1650
55.5100	657.6525
55.5200	636.3450
55.5300	618.1750
55.5400	677.2850
55.5500	622.7300
55.5600	556.0750
55.5700	565.1450
55.5800	612.0900
55.5900	495.5600
55.6000	589.2775
55.6100	721.0550
55.6200	597.1775
55.6300	537.9575
55.6400	503.0900
55.6500	545.3575
55.6600	474.4225
55.6700	557.3400
55.6800	732.8675
55.6900	644.2575
55.7000	603.1275
55.7100	615.1000
55.7200	601.5700
55.7300	584.9075
55.7400	538.0625
55.7500	593.6800
55.7600	569.8325
55.7700	506.3450
55.7800	575.3875
55.7900	658.7050
55.8000	621.4525
55.8100	586.5300
55.8200	658.6575
55.8300	636.5425
55.8400	753.8000
55.8500	586.0050
55.8600	551.6150
55.8700	550.0000
55.8800	610.1825
55.8900	571.5375
55.9000	551.6275
55.9100	625.1825
55.9200	663.4000
55.9300	576.4850
55.9400	596.7200
55.9500	615.0250
55.9600	616.6675
55.9700	676.7375
55.9800	683.3325
55.9900	743.3800
56.0000	659.9500
56.0100	499.9475
56.0200	483.3325
56.0300	648.3225
56.0400	681.6625
56.0500	638.3550
56.0600	708.2825
56.0700	731.6525
56.0800	688.3825
56.0900	683.3325
56.1000	623.4225
56.1100	601.6925
56.1200	570.0575
56.1300	656.4775
56.1400	636.7350
56.1500	558.5225
56.1600	594.8775
56.1700	600.0000
56.1800	704.6725
56.1900	686.7675
56.2000	653.4400
56.2100	635.0550
56.2200	528.7475
56.2300	710.8600
56.2400	763.2025
56.2500	706.9400
56.2600	700.0000
56.2700	580.5925
56.2800	581.5900
56.2900	747.4500
56.3000	751.7500
56.3100	615.7750
56.3200	614.9100
56.3300	527.2200
56.3400	591.1900
56.3500	495.6875
56.3600	513.1300
56.3700	606.0425
56.3800	586.8800
56.3900	583.3325
56.4000	657.7675
56.4100	770.8550
56.4200	664.2850
56.4300	605.3650
56.4400	466.1250
56.4500	539.2325
56.4600	490.5250
56.4700	542.7975
56.4800	668.9050
56.4900	653.6125
56.5000	575.7150
56.5100	596.3750
56.5200	585.1475
56.5300	687.2725
56.5400	655.4625
56.5500	546.1025
56.5600	429.4550
56.5700	594.7075
56.5800	661.1675
56.5900	592.5125
56.6000	612.9900
56.6100	483.2425
56.6200	422.2000
56.6300	505.5825
56.6400	620.3800
56.6500	603.7075
56.6600	540.7575
56.6700	696.2175
56.6800	627.8375
56.6900	690.6750
56.7000	596.4075
56.7100	657.3125
56.7200	696.2525
56.7300	700.0000
56.7400	655.6375
56.7500	605.6475
56.7600	644.3450
56.7700	605.6625
56.7800	747.7600
56.7900	766.6675
56.8000	737.1275
56.8100	689.0325
56.8200	653.8050
56.8300	664.7625
56.8400	666.6675
56.8500	799.4700
56.8600	683.8900
56.8700	519.1650
56.8800	588.4850
56.8900	658.9775
56.9000	578.2175
56.9100	581.4050
56.9200	745.4300
56.9300	796.1325
56.9400	741.0775
56.9500	644.9675
56.9600	618.6075
56.9700	543.0575
56.9800	562.7725
56.9900	684.3975
57.0000	788.2825
57.0100	829.4225
57.0200	789.2100
57.0300	739.2175
57.0400	630.4175
57.0500	587.2675
57.0600	539.2425
57.0700	592.1100
57.0800	688.1475
57.0900	597.1800
57.1000	553.9625
57.1100	594.0475
57.1200	644.0400
57.1300	620.6450
57.1400	543.2950
57.1500	562.6775
57.1600	684.0200
57.1700	656.0000
57.1800	576.6825
57.1900	537.3450
57.2000	591.9650
57.2100	717.2425
57.2200	791.9425
57.2300	682.8025
57.2400	652.0200
57.2500	591.4225
57.2600	656.5425
57.2700	622.7500
57.2800	675.2100
57.2900	639.4325
57.3000	618.7025
57.3100	660.5500
57.3200	652.0425
57.3300	650.0000
57.3400	606.1400
57.3500	658.4675
57.3600	549.7525
57.3700	518.7225
57.3800	575.1025
57.3900	729.3950
57.4000	706.1900
57.4100	700.0000
57.4200	656.2050
57.4300	606.2125
57.4400	702.1500
57.4500	745.8475
57.4600	691.6500
57.4700	785.4275
57.4800	595.8500
57.4900	624.9850
57.5000	604.1800
57.5100	527.1300
57.5200	604.0950
57.5300	602.0975
57.5400	658.2650
57.5500	710.3575
57.5600	745.7875
57.5700	764.5575
57.5800	781.2225
57.5900	870.6500
57.6000	665.0825
57.6100	502.4050
57.6200	526.9675
57.6300	562.4175
57.6400	668.4425
57.6500	639.7225
57.6600	618.8000
57.6700	791.0475
57.6800	802.1375
57.6900	698.3150
57.7000	785.0000
57.7100	814.5200
57.7200	816.6675
57.7300	671.5075
57.7400	620.9725
57.7500	718.2425
57.7600	660.7925
57.7700	620.9900
57.7800	689.1800
57.7900	772.5000
57.8000	797.8300
57.8100	684.0400
57.8200	681.1600
57.8300	726.8025
57.8400	834.7450
57.8500	850.0000
57.8600	806.5525
57.8700	857.9175
57.8800	663.9900
57.8900	575.4350
57.9000	696.9125
57.9100	658.7900
57.9200	765.7325
57.9300	826.7250
57.9400	688.7175
57.9500	681.1250
57.9600	770.0725
57.9700	768.8800
57.9800	752.2150
57.9900	735.5525
58.0000	689.9950
58.0100	668.8900
58.0200	825.5175
58.0300	936.6300
58.0400	877.8200
58.0500	808.9325
58.0600	742.2775
58.0700	791.0475
58.0800	699.0200
58.0900	683.3325
58.1000	683.3325
58.1100	741.0050
58.1200	822.0775
58.1300	804.5075
58.1400	915.2850
58.1500	904.5175
58.1600	914.4050
58.1700	931.0700
58.1800	947.7350
58.1900	993.1950
58.2000	856.0450
58.2100	790.1550
58.2200	826.5050
58.2300	948.4375
58.2400	909.1250
58.2500	971.9150
58.2600	968.9525
58.2700	1067.3125
58.2800	1068.9575
58.2900	1009.1750
58.3000	956.8875
58.3100	935.6325
58.3200	918.9675
58.3300	1146.4750
58.3400	1212.0550
58.3500	1101.8025
58.3600	1183.8225
58.3700	1142.5875
58.3800	1248.1375
58.3900	1338.4075
58.4000	1393.0375
58.4100	1428.6875
58.4200	1418.9925
58.4300	1344.9750
58.4400	1476.6925
58.4500	1672.0000
58.4600	1671.3375
58.4700	1638.0100
58.4800	1619.0075
58.4900	1530.7250
58.5000	1573.9500
58.5100	1511.7400
58.5200	1542.9475
58.5300	1678.8250
58.5400	1714.3125
58.5500	1773.9025
58.5600	1840.5600
58.5700	1850.0000
58.5800	2178.9375
58.5900	2176.1375
58.6000	2509.7900
58.6100	2738.1975
58.6200	3166.8400
58.6300	3690.5975
58.6400	4695.3250
58.6500	5935.6325
58.6600	7444.9150
58.6700	8966.1300
58.6800	10511.1325
58.6900	12460.6075
58.7000	14120.1675
58.7100	15348.9125
58.7200	16715.1600
58.7300	17801.1200
58.7400	18791.5150
58.7500	18833.5100
58.7600	18688.3425
58.7700	18053.6675
58.7800	15740.7275
58.7900	13599.5450
58.8000	11718.4050
58.8100	9996.8875
58.8200	8909.6150
58.8300	8780.9075
58.8400	8527.0300
58.8500	8782.3025
58.8600	9217.6600
58.8700	9681.8275
58.8800	10304.9525
58.8900	10983.3150
58.9000	11211.3575
58.9100	10963.1075
58.9200	10319.4250
58.9300	9448.9100
58.9400	8264.7325
58.9500	6775.7400
58.9600	5782.6275
58.9700	4982.2125
58.9800	4198.9900
58.9900	3572.0050
59.0000	3114.1025
59.0100	2737.6250
59.0200	2484.5825
59.0300	2080.9525
59.0400	1732.8300
59.0500	1754.2800
59.0600	1752.4800
59.0700	1636.5225
59.0800	1574.1200
59.0900	1509.9475
59.1000	1542.5325
59.1100	1493.2975
59.1200	1440.8150
59.1300	1447.5050
59.1400	1336.6525
59.1500	1444.1625
59.1600	1353.3575
59.1700	1361.6550
59.1800	1494.0975
59.1900	1346.7850
59.2000	1160.9675
59.2100	1218.2475
59.2200	1233.3325
59.2300	1106.0050
59.2400	1012.6075
59.2500	1183.8575
59.2600	1117.6825
59.2700	887.9250
59.2800	850.0000
59.2900	835.8675
59.3000	875.7275
59.3100	925.7200
59.3200	961.5875
59.3300	924.2925
59.3400	930.7900
59.3500	1018.0525
59.3600	920.3925
59.3700	914.1150
59.3800	874.3275
59.3900	866.6675
59.4000	993.6425
59.4100	861.5000
59.4200	974.3725
59.4300	929.4925
59.4400	860.2700
59.4500	821.8050
59.4600	732.0975
59.4700	660.2975
59.4800	706.3600
59.4900	815.2825
59.5000	748.8200
59.5100	691.0825
59.5200	655.1700
59.5300	635.9200
59.5400	661.4875
59.5500	666.6675
59.5600	863.6750
59.5700	857.7900
59.5800	821.8650
59.5900	774.4700
59.6000	724.4775
59.6100	772.9100
59.6200	642.7475
59.6300	602.6100
59.6400	543.7850
59.6500	716.0075
59.6600	820.2475
59.6700	805.2400
59.6800	701.6850
59.6900	739.5050
59.7000	707.8775
59.7100	770.1925
59.7200	811.4050
59.7300	858.7675
59.7400	852.6350
59.7500	821.9425
59.7600	830.6950
59.7700	819.3075
59.7800	802.6450
59.7900	729.8975
59.8000	688.6300
59.8100	697.3500
59.8200	840.1375
59.8300	852.6550
59.8400	821.9825
59.8500	760.6375
59.8600	764.0050
59.8700	808.6750
59.8800	732.6650
59.8900	716.6675
59.9000	772.6500
59.9100	797.3275
59.9200	716.0500
59.9300	783.9375
59.9400	827.9750
59.9500	763.4075
59.9600	694.0700
59.9700	683.3325
59.9800	683.3325
59.9900	669.3575
60.0000	624.7450
60.0100	728.4400
60.0200	791.9075
60.0300	841.9025
60.0400	808.1050
60.0500	800.0000
60.0600	841.8825
60.0700	710.4150
60.0800	725.2025
60.0900	691.4700
60.1000	725.1900
60.1100	649.6350
60.1200	633.3325
60.1300	730.9525
60.1400	736.0575
60.1500	691.5100
60.1600	725.1500
60.1700	733.3325
60.1800	775.1375
60.1900	783.3325
60.2000	755.4725
60.2100	680.3600
60.2200	624.8900
60.2300	644.5150
60.2400	705.6850
60.2500	716.6675
60.2600	688.8325
60.2700	752.9075
60.2800	836.2300
60.2900	627.4300
60.3000	722.4175
60.3100	777.8125
60.3200	602.5800
60.3300	580.5675
60.3400	513.8350
60.3500	541.6925
60.3600	633.3725
60.3700	705.5725
60.3800	716.6675
60.3900	688.8875
60.4000	711.1075
60.4100	675.0125
60.4200	680.5500
60.4300	697.2150
60.4400	672.2425
60.4500	680.5425
60.4600	655.5850
60.4700	802.5900
60.4800	694.6350
60.4900	638.9325
60.5000	785.8525
60.5100	719.6225
60.5200	727.7225
60.5300	705.6150
60.5400	741.5700
60.5500	597.5975
60.5600	538.9625
60.5700	588.7350
60.5800	683.0900
60.5900	796.9225
60.6000	830.5100
60.6100	736.4400
60.6200	744.3475
60.6300	763.8375
60.6400	725.1600
60.6500	675.1675
60.6600	652.8350
60.6700	732.9750
60.6800	819.1350
60.6900	847.1575
60.7000	739.4175
60.7100	689.0250
60.7200	697.1525
60.7300	700.0000
60.7400	658.5575
60.7500	580.9400
60.7600	635.7175
60.7700	705.2325
60.7800	647.6375
60.7900	550.5100
60.8000	602.3425
60.8100	713.2625
60.8200	650.5500
60.8300	702.3100
60.8400	730.4600
60.8500	678.1700
60.8600	694.2450
60.8700	658.6400
60.8800	718.9250
60.8900	747.1150
60.9000	818.9025
60.9100	819.5550
60.9200	692.6800
60.9300	556.4725
60.9400	602.1950
60.9500	713.0575
60.9600	581.8850
60.9700	591.2975
60.9800	668.8200
60.9900	683.3325
61.0000	724.6125
61.0100	623.2725
61.0200	544.9775
61.0300	615.8525
61.0400	674.5875
61.0500	642.0850
61.0600	619.5875
61.0700	630.4125
61.0800	605.8475
61.0900	545.0375
61.1000	629.5050
61.1100	704.9450
61.1200	730.4000
61.1300	623.4750
61.1400	654.9200
61.1500	652.9375
61.1600	663.7250
61.1700	652.9425
61.1800	526.5025
61.1900	582.3200
61.2000	558.8475
61.2100	522.5675
61.2200	640.0900
61.2300	639.2425
61.2400	592.2050
61.2500	651.8700
61.2600	762.6050
61.2700	714.8175
61.2800	604.0925
61.2900	624.4300
61.3000	770.3025
61.3100	649.3550
61.3200	644.0525
61.3300	663.6900
61.3400	830.9325
61.3500	770.8600
61.3600	654.2075
61.3700	537.5550
61.3800	557.7075
61.3900	607.7025
61.4000	575.6375
61.4100	635.0375
61.4200	636.3275
61.4300	551.3125
61.4400	547.0025
61.4500	618.3300
61.4600	687.9900
61.4700	631.6900
61.4800	616.6675
61.4900	534.7200
61.5000	625.9125
61.5100	663.6525
61.5200	612.0600
61.5300	559.0525
61.5400	618.2375
61.5500	674.2700
61.5600	765.1925
61.5700	728.7675
61.5800	566.6350
61.5900	574.2450
61.6000	719.6850
61.6100	695.4675
61.6200	547.0225
61.6300	639.3275
61.6400	639.4125
61.6500	565.2100
61.6600	563.6225
61.6700	675.6325
61.6800	618.2875
61.6900	504.6850
61.7000	551.4050
61.7100	661.9550
61.7200	683.3325
61.7300	588.0750
61.7400	580.2725
61.7500	746.5850
61.7600	674.5150
61.7700	731.6000
61.7800	736.4025
61.7900	597.3725
61.8000	525.8850
61.8100	666.1800
61.8200	645.6400
61.8300	714.8600
61.8400	597.4750
61.8500	593.8350
61.8600	640.7450
61.8700	663.5800
61.8800	720.9775
61.8900	679.0300
61.9000	530.9300
61.9100	567.8575
61.9200	664.7500
61.9300	669.7650
61.9400	639.5350
61.9500	660.4600
61.9600	531.0525
61.9700	554.2375
61.9800	648.0100
61.9900	571.7800
62.0000	509.3400
62.0100	608.4100
62.0200	646.8825
62.0300	636.4525
62.0400	646.8775
62.0500	636.4575
62.0600	660.4150
62.0700	693.7450
62.0800	632.3150
62.0900	562.5275
62.1000	631.1975
62.1100	609.4075
62.1200	694.7000
62.1300	676.0875
62.1400	653.1425
62.1500	758.1800
62.1600	756.2925
62.1700	655.3700
62.1800	714.4325
62.1900	692.7900
62.2000	683.3325
62.2100	723.8650
62.2200	679.3000
62.2300	680.1725
62.2400	642.8200
62.2500	727.8500
62.2600	668.9975
62.2700	730.9900
62.2800	682.5200
62.2900	639.6775
62.3000	660.3175
62.3100	666.6675
62.3200	666.6675
62.3300	666.6675
62.3400	653.1825
62.3500	703.9275
62.3600	595.3475
62.3700	580.1450
62.3800	610.2850
62.3900	576.2450
62.4000	607.0825
62.4100	684.0150
62.4200	659.5975
62.4300	650.0000
62.4400	569.2175
62.4500	536.5375
62.4600	654.4700
62.4700	777.5375
62.4800	692.3550
62.4900	720.4800
62.5000	679.5275
62.5100	585.9700
62.5200	674.2475
62.5300	646.2175
62.5400	566.1175
62.5500	644.0900
62.5600	680.1050
62.5700	669.8950
62.5800	693.5375
62.5900	713.4325
62.6000	515.1975
62.6100	453.2375
62.6200	530.5625
62.6300	550.0000
62.6400	536.5775
62.6500	694.3875
62.6600	746.7525
62.6700	736.5825
62.6800	733.3325
62.6900	706.5075
62.7000	700.0000
62.7100	700.0000
62.7200	632.9650
62.7300	697.0950
62.7400	676.4575
62.7500	693.4675
62.7600	740.1975
62.7700	589.2400
62.7800	536.6050
62.7900	560.1175
62.8000	620.2300
62.8100	593.1675
62.8200	610.1075
62.8300	750.5125
62.8400	622.7425
62.8500	650.2350
62.8600	492.7475
62.8700	503.5050
62.8800	583.5375
62.8900	586.6275
62.9000	717.0375
62.9100	897.0525
62.9200	826.4025
62.9300	666.3575
62.9400	646.6950
62.9500	583.2000
62.9600	553.3075
62.9700	509.9325
62.9800	606.8325
62.9900	619.9825
63.0000	696.7675
63.0100	810.1025
63.0200	753.2575
63.0300	679.9575
63.0400	599.9575
63.0500	543.3125
63.0600	533.3325
63.0700	640.0200
63.0800	559.9975
63.0900	520.0025
63.1000	596.6450
63.1100	696.6325
63.1200	676.6900
63.1300	640.0200
63.1400	659.9775
63.1500	653.3475
63.1600	676.6350
63.1700	536.8625
63.1800	593.1950
63.1900	683.2225
63.2000	633.4525
63.2100	603.3600
63.2200	653.2200
63.2300	759.7900
63.2400	770.0325
63.2500	580.4775
63.2600	586.5225
63.2700	639.8850
63.2800	716.4650
63.2900	693.4600
63.3000	670.0450
63.3100	759.6750
63.3200	690.3400
63.3300	626.8175
63.3400	683.0700
63.3500	739.8375
63.3600	657.0625
63.3700	646.6075
63.3800	663.2725
63.3900	640.1250
63.4000	553.7225
63.4100	665.9975
63.4200	686.7350
63.4300	590.4950
63.4400	566.6675
63.4500	659.4750
63.4600	802.6400
63.4700	647.7725
63.4800	653.0100
63.4900	679.9175
63.5000	762.8225
63.5100	717.1025
63.5200	620.5350
63.5300	600.0000
63.5400	639.7200
63.5500	650.0000
63.5600	623.5275
63.5700	629.9000
63.5800	699.4925
63.5900	729.8975
63.6000	759.7875
63.6100	594.7350
63.6200	510.3300
63.6300	618.9925
63.6400	650.0000
63.6500	755.7400
63.6600	770.1175
63.6700	727.0275
63.6800	716.6675
63.6900	663.8300
63.7000	570.7575
63.7100	629.2300
63.7200	689.6100
63.7300	700.0000
63.7400	713.2000
63.7500	703.4700
63.7600	700.0000
63.7700	647.2300
63.7800	593.7625
63.7900	583.3325
63.8000	609.7075
63.8100	735.3275
63.8200	819.3975
63.8300	661.9875
63.8400	563.9525
63.8500	563.1750
63.8600	658.8850
63.8700	564.7850
63.8800	651.8625
63.8900	762.3400
63.9000	717.5050
63.9100	700.0000
63.9200	621.0300
63.9300	718.4375
63.9400	828.9450
63.9500	797.3775
63.9600	796.4875
63.9700	707.9400
63.9800	735.9300
63.9900	750.0000
64.0000	736.8550
64.0100	720.1900
64.0200	729.8075
64.0300	641.3600
64.0400	564.1200
64.0500	602.5400
64.0600	656.0650
64.0700	640.4050
64.0800	738.3625
64.0900	740.4125
64.1000	798.9550
64.1100	724.8100
64.1200	621.2775
64.1300	704.9450
64.1400	785.7975
64.1500	839.3425
64.1600	784.4400
64.1700	622.4575
64.1800	635.7650
64.1900	754.8450
64.2000	770.2300
64.2100	635.6500
64.2200	757.1925
64.2300	865.4875
64.2400	883.3325
64.2500	765.4950
64.2600	772.6075
64.2700	783.3325
64.2800	835.6800
64.2900	810.7450
64.3000	813.0825
64.3100	816.6675
64.3200	725.1175
64.3300	843.8400
64.3400	752.5900
64.3500	834.3175
64.3600	670.6150
64.3700	721.2100
64.3800	802.2650
64.3900	725.2200
64.4000	739.1850
64.4100	736.9400
64.4200	720.2750
64.4300	768.8875
64.4400	744.1725
64.4500	811.6400
64.4600	846.3825
64.4700	823.9050
64.4800	868.8475
64.4900	739.8625
64.5000	700.0000
64.5100	830.3850
64.5200	736.3025
64.5300	778.2050
64.5400	943.3550
64.5500	866.0625
64.5600	833.3325
64.5700	729.1250
64.5800	817.2150
64.5900	876.0425
64.6000	831.2550
64.6100	855.7200
64.6200	905.7125
64.6300	929.6800
64.6400	907.3100
64.6500	717.8750
64.6600	770.7200
64.6700	813.0050
64.6800	790.6625
64.6900	913.3375
64.7000	1001.9925
64.7100	834.7200
64.7200	796.3275
64.7300	709.0575
64.7400	787.2525
64.7500	881.6050
64.7600	900.0000
64.7700	822.1000
64.7800	851.9250
64.7900	931.5625
64.8000	898.0925
64.8100	766.5600
64.8200	707.3875
64.8300	622.1775
64.8400	625.9375
64.8500	711.1300
64.8600	720.3700
64.8700	768.5150
64.8800	692.6150
64.8900	705.5400
64.9000	781.4450
64.9100	890.6725
64.9200	735.3500
64.9300	722.1800
64.9400	772.1750
64.9500	770.3875
64.9600	753.7250
64.9700	879.4050
64.9800	800.2225
64.9900	676.1150
65.0000	624.1325
65.0100	720.1200
65.0200	801.7175
65.0300	713.2475
65.0400	709.1850
65.0500	716.6675
65.0600	729.5875
65.0700	681.6575
65.0800	653.7500
65.0900	637.0850
65.1000	672.0700
65.1100	696.2425
65.1200	700.0000
65.1300	841.9625
65.1400	922.0450
65.1500	894.6300
65.1600	793.0400
65.1700	715.0775
65.1800	764.4750
65.1900	860.6900
65.2000	741.5375
65.2100	648.4475
65.2200	787.9675
65.2300	987.9400
65.2400	930.2800
65.2500	861.3625
65.2600	888.6325
65.2700	912.8750
65.2800	878.0475
65.2900	737.9600
65.3000	725.7375
65.3100	759.0650
65.3200	766.6675
65.3300	882.4250
65.3400	878.0875
65.3500	866.6675
65.3600	776.6800
65.3700	865.6775
65.3800	1002.8075
65.3900	840.6025
65.4000	834.7200
65.4100	785.7775
65.4200	753.8250
65.4300	737.1600
65.4400	797.5225
65.4500	765.3250
65.4600	737.1675
65.4700	823.1500
65.4800	811.5125
65.4900	941.0925
65.5000	880.7375
65.5100	875.6450
65.5200	857.6925
65.5300	939.7225
65.5400	851.3275
65.5500	765.4150
65.5600	788.4325
65.5700	787.1925
65.5800	872.9800
65.5900	810.3700
65.6000	821.7400
65.6100	871.7325
65.6200	934.5225
65.6300	924.4100
65.6400	980.6325
65.6500	1000.0000
65.6600	987.2125
65.6700	957.7600
65.6800	847.7275
65.6900	803.8850
65.7000	927.7950
65.7100	915.5575
65.7200	887.2250
65.7300	985.5150
65.7400	1029.4375
65.7500	982.2600
65.7600	941.1350
65.7700	920.5700
65.7800	942.1900
65.7900	1001.0375
65.8000	978.3950
65.8100	928.4025
65.8200	967.6775
65.8300	983.3325
65.8400	1021.5775
65.8500	1122.5525
65.8600	1251.9475
65.8700	1245.1100
65.8800	1195.1175
65.8900	992.2850
65.9000	958.8025
65.9100	1106.7175
65.9200	1200.9175
65.9300	1203.9400
65.9400	1136.3750
65.9500	1256.6175
65.9600	1185.5150
65.9700	1213.5900
65.9800	1347.7775
65.9900	1179.9150
66.0000	1345.4700
66.0100	1454.7925
66.0200	1276.0650
66.0300	1470.7550
66.0400	1486.4900
66.0500	1466.6675
66.0600	1568.2475
66.0700	1625.3900
66.0800	1709.4900
66.0900	1733.3325
66.1000	1682.5800
66.1100	1615.9225
66.1200	1612.6825
66.1300	1692.7550
66.1400	1780.0625
66.1500	1901.4125
66.1600	2072.7500
66.1700	2078.6500
66.1800	2015.9875
66.1900	2152.0075
66.2000	2250.6600
66.2100	2405.9550
66.2200	2412.0200
66.2300	2349.3675
66.2400	2421.9225
66.2500	2677.7600
66.2600	2952.4150
66.2700	2940.7750
66.2800	3093.7150
66.2900	3238.5075
66.3000	3481.5750
66.3100	3802.7850
66.3200	4047.6125
66.3300	4529.5750
66.3400	4881.4150
66.3500	5366.7850
66.3600	6080.8650
66.3700	7339.8025
66.3800	8592.1725
66.3900	9337.6675
66.4000	10656.8100
66.4100	12307.5150
66.4200	14457.3000
66.4300	16504.7550
66.4400	18282.0125
66.4500	20452.2575
66.4600	21949.3475
66.4700	23497.5400
66.4800	24403.9625
66.4900	24604.4575
66.5000	23923.9825
66.5100	22805.9775
66.5200	21295.4850
66.5300	19540.5925
66.5400	17489.1575
66.5500	15783.9300
66.5600	14330.7075
66.5700	12964.5550
66.5800	12444.7075
66.5900	12232.4600
66.6000	11831.3650
66.6100	11867.4825
66.6200	12419.2875
66.6300	12897.4100
66.6400	13602.9125
66.6500	13787.4425
66.6600	13934.0025
66.6700	13857.8000
66.6800	14080.2375
66.6900	13212.9725
66.7000	12661.6225
66.7100	11793.0775
66.7200	10354.4475
66.7300	9088.9425
66.7400	7972.5925
66.7500	6960.4925
66.7600	5952.2400
66.7700	5461.9450
66.7800	4944.8975
66.7900	4161.2625
66.8000	3749.6500
66.8100	3533.1000
66.8200	3182.9275
66.8300	3058.3050
66.8400	2862.3200
66.8500	2712.4325
66.8600	2520.7400
66.8700	2491.6750
66.8800	2187.4450
66.8900	2008.3350
66.9000	2020.8250
66.9100	2170.7775
66.9200	2166.6975
66.9300	1900.2025
66.9400	1616.8675
66.9500	1587.4550
66.9600	1512.6225
66.9700	1583.1725
66.9800	1591.7125
66.9900	1658.1825
67.0000	1458.8275
67.0100	1233.6925
67.0200	1332.9450
67.0300	1383.3325
67.0400	1196.3950
67.0500	1195.6350
67.0600	1154.3775
67.0700	1208.0650
67.0800	1332.9550
67.0900	1329.3175
67.1000	1266.8750
67.1100	1175.3300
67.1200	1125.1150
67.1300	1004.7050
67.1400	1053.7300
67.1500	1083.3325
67.1600	1182.7925
67.1700	1129.6575
67.1800	901.1600
67.1900	833.3325
67.2000	907.8675
67.2100	920.9125
67.2200	966.3375
67.2300	1057.8225
67.2400	1021.2725
67.2500	1062.0500
67.2600	1058.5200
67.2700	938.3575
67.2800	924.8050
67.2900	1057.3300
67.3000	1124.7950
67.3100	1071.3600
67.3200	1050.0000
67.3300	888.9375
67.3400	858.1075
67.3500	928.5875
67.3600	925.2375
67.3700	966.1825
67.3800	946.2025
67.3900	797.2200
67.4000	811.8575
67.4100	858.0700
67.4200	854.3000
67.4300	837.6375
67.4400	845.6950
67.4500	899.4350
67.4600	904.3100
67.4700	838.2325
67.4800	841.3675
67.4900	812.9550
67.5000	787.6550
67.5100	820.3625
67.5200	845.6750
67.5300	850.0000
67.5400	862.3350
67.5500	743.3400
67.5600	712.3300
67.5700	753.6500
67.5800	828.2900
67.5900	788.3900
67.6000	815.9450
67.6100	784.0650
67.6200	889.8100
67.6300	871.7750
67.6400	911.5450
67.6500	884.1075
67.6600	854.3625
67.6700	923.8075
67.6800	913.1050
67.6900	789.3375
67.7000	713.1200
67.7100	724.5800
67.7200	843.9250
67.7300	772.7650
67.7400	733.3325
67.7500	770.1725
67.7600	893.8300
67.7700	908.7850
67.7800	765.0075
67.7900	802.5525
67.8000	919.2000
67.8100	827.3600
67.8200	758.8100
67.8300	750.0000
67.8400	651.9525
67.8500	628.9200
67.8600	621.0825
67.8700	690.1550
67.8800	630.9500
67.8900	624.4850
67.9000	743.4925
67.9100	771.0950
67.9200	766.6675
67.9300	815.5950
67.9400	772.1875
67.9500	786.6800
67.9600	763.3300
67.9700	713.3375
67.9800	834.4000
67.9900	883.3325
68.0000	834.4825
68.0100	755.6150
68.0200	769.9550
68.0300	758.9250
68.0400	762.2025
68.0500	705.6700
68.0600	707.7275
68.0700	789.8300
68.0800	804.4750
68.0900	824.3775
68.1000	857.7050
68.1100	866.6675
68.1200	805.7675
68.1300	783.3325
68.1400	710.2850
68.1500	622.4750
68.1600	624.3375
68.1700	681.9975
68.1800	700.0000
68.1900	736.4825
68.2000	798.6325
68.2100	768.0450
68.2200	677.0850
68.2300	710.7475
68.2400	745.4800
68.2500	677.1350
68.2600	698.5650
68.2700	789.4975
68.2800	683.1750
68.2900	669.7325
68.3000	634.8125
68.3100	665.1750
68.3200	671.2100
68.3300	666.6675
68.3400	606.0725
68.3500	680.2625
68.3600	789.3475
68.3700	768.2250
68.3800	616.8150
68.3900	578.7725
68.4000	631.7425
68.4100	698.3975
68.4200	752.9550
68.4300	742.4800
68.4400	684.9700
68.4500	678.7550
68.4600	683.3325
68.4700	731.6625
68.4800	774.1575
68.4900	807.4850
68.5000	659.7100
68.5100	720.7075
68.5200	718.3950
68.5300	748.2600
68.5400	694.2925
68.5500	606.3700
68.5600	752.1225
68.5700	913.0950
68.5800	660.7825
68.5900	610.2400
68.6000	681.5125
68.6100	736.1250
68.6200	750.0000
68.6300	750.0000
68.6400	665.7675
68.6500	657.3950
68.6600	690.7225
68.6700	700.0000
68.6800	760.1100
68.6900	663.1450
68.7000	592.6350
68.7100	679.4375
68.7200	740.6875
68.7300	762.0075
68.7400	706.6450
68.7500	695.3350
68.7600	604.0125
68.7700	602.6525
68.7800	724.6000
68.7900	778.6575
68.8000	711.4125
68.8100	671.3500
68.8200	798.4550
68.8300	885.9325
68.8400	804.2000
68.8500	730.7500
68.8600	752.5725
68.8700	778.6325
68.8800	783.3325
68.8900	687.6525
68.9000	673.9150
68.9100	587.7000
68.9200	633.6575
68.9300	690.5625
68.9400	759.7275
68.9500	831.1025
68.9600	802.2425
68.9700	759.4600
68.9800	678.4000
68.9900	614.2100
69.0000	635.7825
69.0100	614.2275
69.0200	743.0550
69.0300	740.4075
69.0400	740.4975
69.0500	690.4375
69.0600	714.3025
69.0700	697.6150
69.0800	623.8175
69.0900	659.5000
69.1000	671.4350
69.1100	702.3500
69.1200	764.2300
69.1300	783.3325
69.1400	640.7125
69.1500	749.6800
69.1600	792.9100
69.1700	735.8300
69.1800	681.0475
69.1900	714.1450
69.2000	780.8000
69.2100	693.2275
69.2200	638.1400
69.2300	633.3325
69.2400	633.3325
69.2500	680.7375
69.2600	759.2425
69.2700	783.3325
69.2800	664.9125
69.2900	592.9875
69.3000	571.4975
69.3100	590.3325
69.3200	682.8075
69.3300	645.7075
69.3400	604.8425
69.3500	659.1025
69.3600	730.6025
69.3700	643.6725
69.3800	647.2450
69.3900	560.3950
69.4000	563.8850
69.4100	571.5325
69.4200	590.2650
69.4300	623.5900
69.4400	597.9550
69.4500	571.5450
69.4600	578.4525
69.4700	701.1625
69.4800	655.7625
69.4900	534.2300
69.5000	582.4150
69.5100	593.1250
69.5200	595.1000
69.5300	717.6400
69.5400	637.2950
69.5500	501.0300
69.5600	607.7225
69.5700	701.9200
69.5800	681.4225
69.5900	619.6850
69.6000	693.9350
69.6100	651.1625
69.6200	522.7825
69.6300	588.9250
69.6400	703.7100
69.6500	698.1550
69.6600	624.7200
69.6700	564.8400
69.6800	514.8500
69.6900	581.9925
69.7000	640.0875
69.7100	685.1200
69.7200	711.7050
69.7300	681.5650
69.7400	666.6675
69.7500	619.8900
69.7600	588.3100
69.7700	665.1475
69.7800	629.8925
69.7900	588.3175
69.8000	641.7250
69.8100	725.0400
69.8200	679.9700
69.8300	614.9950
69.8400	518.3425
69.8500	553.3050
69.8600	653.2850
69.8700	625.0550
69.8800	646.6100
69.8900	689.9650
69.9000	688.3550
69.9100	671.6900
69.9200	585.1900
69.9300	573.2725
69.9400	594.9650
69.9500	623.2600
69.9600	691.4650
69.9700	658.5500
69.9800	679.8125
69.9900	537.3675
70.0000	478.2800
70.0100	552.9950
70.0200	641.3675
70.0300	678.2700
70.0400	683.3325
70.0500	660.1400
70.0600	626.8125
70.0700	581.8950
70.0800	589.8400
70.0900	692.6725
70.1000	675.4300
70.1100	626.8450
70.1200	639.8150
70.1300	673.1425
70.1400	625.4950
70.1500	634.6925
70.1600	638.4400
70.1700	610.2175
70.1800	611.5550
70.1900	651.3200
70.2000	701.3100
70.2100	728.2100
70.2200	744.8750
70.2300	738.4625
70.2400	733.3325
70.2500	687.2075
70.2600	620.5550
70.2700	588.4750
70.2800	606.3750
70.2900	524.5225
70.3000	425.7600
70.3100	480.5800
70.3200	608.7325
70.3300	592.4750
70.3400	589.6700
70.3500	622.9975
70.3600	667.8175
70.3700	660.3500
70.3800	672.9775
70.3900	637.3925
70.4000	628.1475
70.4100	575.9425
70.4200	618.8500
70.4300	672.9425
70.4400	614.5225
70.4500	594.7975
70.4600	622.9225
70.4700	644.7925
70.4800	638.5450
70.4900	633.3325
70.5000	656.2300
70.5100	643.7775
70.5200	644.7750
70.5300	592.8075
70.5400	635.2775
70.5500	632.3725
70.5600	582.3825
70.5700	658.0650
70.5800	631.4700
70.5900	554.3275
70.6000	556.1625
70.6100	532.4325
70.6200	596.5250
70.6300	610.5225
70.6400	611.4025
70.6500	616.6675
70.6600	559.6925
70.6700	590.2900
70.6800	559.7275
70.6900	613.0250
70.7000	695.5250
70.7100	728.0450
70.7200	744.7075
70.7300	761.3700
70.7400	732.5625
70.7500	659.8450
70.7600	644.6950
70.7700	661.3575
70.7800	700.7300
70.7900	625.8575
70.8000	560.6375
70.8100	629.4100
70.8200	621.3025
70.8300	656.6875
70.8400	706.0025
70.8500	705.3350
70.8600	677.3450
70.8700	700.6400
70.8800	705.3450
70.8900	598.1450
70.9000	538.6850
70.9100	657.7500
70.9200	750.5875
70.9300	732.7550
70.9400	637.5650
70.9500	566.1100
70.9600	606.4675
70.9700	712.3650
70.9800	716.1400
70.9900	756.4175
71.0000	726.9325
71.0100	632.3400
71.0200	588.7275
71.0300	650.9525
71.0400	649.5350
71.0500	554.4925
71.0600	584.2250
71.0700	650.4350
71.0800	756.6900
71.0900	575.0100
71.1000	522.8975
71.1100	617.4575
71.1200	683.7175
71.1300	767.4150
71.1400	698.9075
71.1500	616.3125
71.1600	622.4525
71.1700	633.3325
71.1800	655.7725
71.1900	711.5300
71.2000	710.9100
71.2100	700.0000
71.2200	677.5900
71.2300	711.4750
71.2400	621.3475
71.2500	622.6425
71.2600	739.5350
71.2700	749.7675
71.2800	655.0375
71.2900	549.5775
71.3000	606.0925
71.3100	683.5250
71.3200	666.4850
71.3300	571.8250
71.3400	488.6750
71.3500	555.9575
71.3600	533.0525
71.3700	544.6175
71.3800	622.4225
71.3900	638.8525
71.4000	599.9000
71.4100	572.1925
71.4200	522.1175
71.4300	566.8050
71.4400	677.9150
71.4500	705.5400
71.4600	666.6275
71.4700	616.6400
71.4800	622.2350
71.4900	688.9025
71.5000	661.1150
71.5100	611.1200
71.5200	600.0000
71.5300	711.0000
71.5400	744.4725
71.5500	578.0275
71.5600	544.3600
71.5700	611.0125
71.5800	666.5825
71.5900	749.8100
71.6000	672.5725
71.6100	572.3750
71.6200	638.5550
71.6300	683.3325
71.6400	605.8950
71.6500	511.3700
71.6600	604.9475
71.6700	732.9800
71.6800	689.3250
71.6900	572.6800
71.7000	654.7975
71.7100	705.6275
71.7200	644.8225
71.7300	616.6675
71.7400	572.5525
71.7500	505.9000
71.7600	560.4850
71.7700	600.0000
71.7800	577.9700
71.7900	555.6550
71.8000	583.0250
71.8100	644.0200
71.8200	589.6575
71.8300	571.9950
71.8400	682.2850
71.8500	667.3850
71.8600	633.3325
71.8700	732.1925
71.8800	684.5050
71.8900	611.3775
71.9000	632.9225
71.9100	650.0000
71.9200	573.2275
71.9300	664.9025
71.9400	744.2950
71.9500	782.8725
71.9600	734.2775
71.9700	732.8525
71.9800	739.0525
71.9900	678.6150
72.0000	715.6425
72.0100	782.8100
72.0200	756.2650
72.0300	722.4025
72.0400	694.8125
72.0500	672.4100
72.0600	655.7475
72.0700	660.9175
72.0800	655.7525
72.0900	606.3600
72.1000	659.6800
72.1100	710.9025
72.1200	662.1675
72.1300	676.9200
72.1400	623.7500
72.1500	616.0025
72.1600	644.2200
72.1700	693.5325
72.1800	771.0650
72.1900	702.1150
72.2000	595.6375
72.2100	555.7975
72.2200	582.5975
72.2300	621.7250
72.2400	665.9100
72.2500	683.3325
72.2600	683.3325
72.2700	759.2775
72.2800	745.7700
72.2900	716.6675
72.3000	651.6325
72.3100	692.5175
72.3200	700.8350
72.3300	683.3325
72.3400	769.9375
72.3500	719.2650
72.3600	655.8475
72.3700	639.1850
72.3800	600.8975
72.3900	604.9500
72.4000	551.8325
72.4100	581.4800
72.4200	627.4650
72.4300	698.1050
72.4400	722.5400
72.4500	684.3000
72.4600	634.3100
72.4700	584.3200
72.4800	620.5600
72.4900	725.4275
72.5000	734.3500
72.5100	695.1300
72.5200	597.2100
72.5300	614.5725
72.5400	574.6900
72.5500	544.0875
72.5600	614.5125
72.5700	639.2525
72.5800	708.5500
72.5900	739.2575
72.6000	787.0275
72.6100	698.5775
72.6200	644.0650
72.6300	617.8125
72.6400	567.8225
72.6500	539.2775
72.6600	619.0850
72.6700	570.2275
72.6800	559.5150
72.6900	636.8775
72.7000	581.0225
72.7100	608.2500
72.7200	703.4950
72.7300	786.8125
72.7400	699.0500
72.7500	558.5100
72.7600	548.7250
72.7700	609.3975
72.7800	750.8050
72.7900	624.5000
72.8000	634.0650
72.8100	657.3225
72.8200	590.6700
72.8300	673.2925
72.8400	658.7175
72.8500	680.6025
72.8600	801.8900
72.8700	700.9050
72.8800	680.5450
72.8900	780.5250
72.9000	752.8275
72.9100	674.1200
72.9200	671.2675
72.9300	768.3725
72.9400	752.9075
72.9500	652.9275
72.9600	574.1875
72.9700	709.2525
72.9800	810.6125
72.9900	699.9525
73.0000	771.2250
73.0100	765.1700
73.0200	716.6675
73.0300	748.4575
73.0400	787.8550
73.0500	715.2725
73.0600	645.4925
73.0700	675.6700
73.0800	721.1625
73.0900	659.2875
73.1000	690.6875
73.1100	765.0475
73.1200	730.4925
73.1300	700.0000
73.1400	678.8775
73.1500	772.2500
73.1600	801.6675
73.1700	772.7825
73.1800	766.6675
73.1900	861.5775
73.2000	874.4975
73.2100	818.3825
73.2200	810.5350
73.2300	911.4600
73.2400	924.5500
73.2500	921.0525
73.2600	943.8575
73.2700	950.0000
73.2800	1002.5825
73.2900	1043.8475
73.3000	1039.4900
73.3100	970.2900
73.3200	943.8375
73.3300	1076.0075
73.3400	1233.9800
73.3500	1178.3900
73.3600	1085.1925
73.3700	1014.2275
73.3800	941.3950
73.3900	1052.9275
73.4000	1164.7675
73.4100	1246.1850
73.4200	1293.8050
73.4300	1216.2475
73.4400	1187.5975
73.4500	1283.7000
73.4600	1427.4675
73.4700	1368.3150
73.4800	1383.6250
73.4900	1370.6325
73.5000	1385.5675
73.5100	1468.8850
73.5200	1562.6425
73.5300	1589.5625
73.5400	1823.3225
73.5500	2008.3925
73.5600	2022.9050
73.5700	2006.2425
73.5800	2020.8425
73.5900	2210.4500
73.6000	2306.2500
73.6100	2404.1250
73.6200	2747.7175
73.6300	3197.6325
73.6400	3408.2800
73.6500	3651.7325
73.6600	3866.5075
73.6700	4467.5375
73.6800	5153.2825
73.6900	5491.3175
73.7000	6200.1200
73.7100	6988.2075
73.7200	7503.1700
73.7300	8392.9325
73.7400	9590.5000
73.7500	10454.3925
73.7600	11052.4425
73.7700	11577.5550
73.7800	11777.0275
73.7900	11783.3325
73.8000	12249.2500
73.8100	11912.2950
73.8200	11264.2950
73.8300	10696.5625
73.8400	10088.0475
73.8500	9132.6375
73.8600	8176.8975
73.8700	7463.7050
73.8800	7092.7150
73.8900	6872.0975
73.9000	6721.3950
73.9100	6394.3675
73.9200	6505.5475
73.9300	6755.5325
73.9400	6738.1325
73.9500	6648.4600
73.9600	6441.4800
73.9700	6508.4700
73.9800	6997.7325
73.9900	7161.2600
74.0000	7260.7700
74.0100	7082.4575
74.0200	6937.2400
74.0300	6579.7725
74.0400	6082.6900
74.0500	5700.8250
74.0600	5083.7350
74.0700	4454.6225
74.0800	4198.6550
74.0900	3899.7450
74.1000	3394.6450
74.1100	3049.9500
74.1200	2915.3800
74.1300	2770.5350
74.1400	2546.2275
74.1500	2337.2675
74.1600	2153.9650
74.1700	2062.8475
74.1800	2070.4800
74.1900	1827.4150
74.2000	1523.3950
74.2100	1351.4875
74.2200	1402.2800
74.2300	1405.3175
74.2400	1336.0000
74.2500	1286.0100
74.2600	1236.0175
74.2700	1145.1725
74.2800	1140.8425
74.2900	1064.5925
74.3000	1071.4325
74.3100	1065.6575
74.3200	982.3400
74.3300	970.3925
74.3400	1034.2975
74.3500	1025.9050
74.3600	918.5025
74.3700	948.1425
74.3800	918.5475
74.3900	744.5225
74.4000	697.1950
74.4100	838.7425
74.4200	886.1575
74.4300	846.3325
74.4400	894.3200
74.4500	811.3950
74.4600	784.1275
74.4700	796.3550
74.4800	763.0275
74.4900	750.0000
74.5000	699.2625
74.5100	707.2450
74.5200	692.7675
74.5300	656.5275
74.5400	639.8650
74.5500	684.0000
74.5600	757.1900
74.5700	793.4600
74.5800	820.2500
74.5900	762.4775
74.6000	645.8300
74.6100	650.5825
74.6200	642.8775
74.6300	566.1125
74.6400	583.8750
74.6500	707.6150
74.6600	706.0500
74.6700	676.7675
74.6800	743.9175
74.6900	702.5775
74.7000	700.4575
74.7100	723.2450
74.7200	696.4950
74.7300	622.8325
74.7400	623.6575
74.7500	650.0000
74.7600	650.0000
74.7700	670.1450
74.7800	693.4025
74.7900	659.7300
74.8000	593.0750
74.8100	506.2950
74.8200	527.0225
74.8300	586.7800
74.8400	630.1625
74.8500	660.0500
74.8600	737.0050
74.8700	763.2425
74.8800	739.9575
74.8900	713.2525
74.9000	679.9250
74.9100	656.6325
74.9200	650.0000
74.9300	710.1775
74.9400	750.0000
74.9500	840.2200
74.9600	839.8700
74.9700	689.7875
74.9800	566.5825
74.9900	553.3625
75.0000	626.7350
75.0100	626.6325
75.0200	569.9825
75.0300	610.0225
75.0400	629.9975
75.0500	596.6700
75.0600	613.3200
75.0700	563.3800
75.0800	586.6000
75.0900	623.3450
75.1000	646.6225
75.1100	586.8025
75.1200	563.2750
75.1300	663.1550
75.1400	626.8900
75.1500	526.7750
75.1600	529.9100
75.1700	579.9025
75.1800	619.9300
75.1900	613.4075
75.2000	500.4000
75.2100	512.9925
75.2200	626.3975
75.2300	636.8100
75.2400	606.7175
75.2500	619.8950
75.2600	613.4425
75.2700	540.3450
75.2800	569.5800
75.2900	616.6675
75.3000	586.8625
75.3100	566.6675
75.3200	636.1775
75.3300	633.6950
75.3400	520.5975
75.3500	506.3575
75.3600	592.8550
75.3700	653.1700
75.3800	607.1750
75.3900	586.4925
75.4000	590.0900
75.4100	504.0675
75.4200	509.4350
75.4300	540.0975
75.4400	523.4325
75.4500	536.4650
75.4600	589.5850
75.4700	577.0925
75.4800	500.5425
75.4900	555.6675
75.5000	596.8925
75.5100	593.2175
75.5200	530.8275
75.5300	493.2125
75.5400	588.8950
75.5500	590.7500
75.5600	490.7650
75.5700	479.6100
75.5800	480.2650
75.5900	555.4550
75.6000	547.6250
75.6100	559.1650
75.6200	639.4350
75.6300	597.6725
75.6400	500.7300
75.6500	496.2225
75.6600	536.3650
75.6700	569.6950
75.6800	553.8000
75.6900	553.0175
75.7000	576.5075
75.7100	573.4950
75.7200	566.6675
75.7300	586.3325
75.7400	531.1825
75.7500	483.3325
75.7600	434.2000
75.7700	468.7725
75.7800	575.6000
75.7900	567.5650
75.8000	523.5150
75.8100	536.2975
75.8200	579.4400
75.8300	590.1875
75.8400	642.1875
75.8500	653.9125
75.8600	554.8950
75.8700	490.1975
75.8800	542.1350
75.8900	563.7375
75.9000	579.3875
75.9100	619.5875
75.9200	692.0850
75.9300	703.9650
75.9400	575.6700
75.9500	470.6450
75.9600	508.7000
75.9700	510.8750
75.9800	483.3325
75.9900	473.5575
76.0000	535.0900
76.0100	554.0150
76.0200	494.2500
76.0300	486.2025
76.0400	519.5325
76.0500	572.3900
76.0600	658.5750
76.0700	631.6775
76.0800	544.3000
76.0900	545.9350
76.1000	556.9125
76.1100	559.7525
76.1200	517.9175
76.1300	502.8300
76.1400	428.9525
76.1500	493.3375
76.1600	544.3650
76.1700	497.1875
76.1800	493.0725
76.1900	509.7350
76.2000	555.6025
76.2100	554.1375
76.2200	640.3650
76.2300	697.2100
76.2400	731.9650
76.2500	727.7700
76.2600	651.3875
76.2700	636.1075
76.2800	669.4375
76.2900	673.6175
76.3000	540.3775
76.3100	411.1500
76.3200	412.4650
76.3300	462.4600
76.3400	502.7475
76.3500	516.6675
76.3600	526.3700
76.3700	484.8275
76.3800	488.7975
76.3900	506.9700
76.4000	519.3925
76.4100	533.3325
76.4200	513.9500
76.4300	480.6200
76.4400	466.6675
76.4500	495.7250
76.4600	536.0350
76.4700	550.0000
76.4800	559.6800
76.4900	537.6300
76.5000	526.3450
76.5100	504.3075
76.5200	541.3775
76.5300	660.7100
76.5400	658.6450
76.5500	539.3175
76.5600	473.6675
76.5700	524.6575
76.5800	479.6975
76.5900	503.6200
76.6000	566.6675
76.6100	431.4550
76.6200	362.3025
76.6300	441.2600
76.6400	560.5550
76.6500	645.6200
76.6600	628.0700
76.6700	561.4100
76.6800	485.1025
76.6900	469.2875
76.7000	531.5475
76.7100	528.1025
76.7200	490.3600
76.7300	502.6075
76.7400	574.4825
76.7500	607.0325
76.7600	551.8375
76.7700	507.0350
76.7800	519.2600
76.7900	494.8225
76.8000	514.7975
76.8100	530.7500
76.8200	516.6675
76.8300	458.9400
76.8400	378.1875
76.8500	455.7975
76.8600	552.5650
76.8700	480.1325
76.8800	349.3750
76.8900	386.5050
76.9000	440.3900
76.9100	471.7675
76.9200	500.0000
76.9300	500.0000
76.9400	528.8125
76.9500	492.3875
76.9600	450.0000
76.9700	536.3925
76.9800	523.2200
76.9900	457.0700
77.0000	402.0275
77.0100	405.0400
77.0200	471.7000
77.0300	471.2300
77.0400	478.7650
77.0500	490.4125
77.0600	444.9925
77.0700	426.2500
77.0800	423.7500
77.0900	474.1525
77.1000	554.9850
77.1100	573.7550
77.1200	518.7850
77.1300	464.1825
77.1400	507.4425
77.1500	530.8550
77.1600	516.6675
77.1700	554.9450
77.1800	545.0625
77.1900	468.8350
77.2000	423.7675
77.2100	454.9200
77.2200	550.2675
77.2300	600.0000
77.2400	533.0850
77.2500	454.6600
77.2600	500.2275
77.2700	569.1100
77.2800	506.9050
77.2900	411.7900
77.3000	431.0875
77.3100	457.1175
77.3200	535.9325
77.3300	561.8125
77.3400	476.0625
77.3500	442.8775
77.3600	411.8300
77.3700	364.2500
77.3800	369.0800
77.3900	440.5650
77.4000	531.0200
77.4100	557.1300
77.4200	530.9300
77.4300	430.8700
77.4400	461.9850
77.4500	542.8650
77.4600	588.1175
77.4700	645.2500
77.4800	552.3500
77.4900	447.6175
77.5000	461.9050
77.5100	473.8100
77.5200	447.6250
77.5300	442.8525
77.5400	478.5550
77.5500	480.9650
77.5600	476.1825
77.5700	483.3325
77.5800	521.3875
77.5900	588.0475
77.6000	578.6225
77.6100	483.4325
77.6200	452.3500
77.6300	400.1175
77.6400	464.0700
77.6500	492.9725
77.6600	402.4825
77.6700	452.1850
77.6800	507.1650
77.6900	519.0000
77.7000	504.8375
77.7100	454.8425
77.7200	461.8200
77.7300	502.3225
77.7400	459.7075
77.7500	464.1275
77.7600	547.4550
77.7700	592.8225
77.7800	590.5125
77.7900	602.3075
77.8000	588.2075
77.8100	557.1825
77.8200	512.0650
77.8300	483.3325
77.8400	473.8525
77.8500	485.6275
77.8600	528.4375
77.8700	521.5675
77.8800	443.1400
77.8900	456.8525
77.9000	490.5250
77.9100	445.4425
77.9200	416.6675
77.9300	397.7250
77.9400	430.6800
77.9500	438.2625
77.9600	378.7975
77.9700	444.6600
77.9800	535.5975
77.9900	483.7550
78.0000	423.8700
78.0100	416.6675
78.0200	397.7450
78.0300	440.0875
78.0400	492.7925
78.0500	471.6300
78.0600	478.3675
78.0700	500.0000
78.0800	622.8950
78.0900	631.5950
78.1000	500.5075
78.1100	468.9000
78.1200	426.6400
78.1300	430.5725
78.1400	447.7725
78.1500	471.1150
78.1600	490.5550
78.1700	483.3325
78.1800	549.4300
78.1900	590.5600
78.2000	573.8925
78.2100	538.3500
78.2200	478.9150
78.2300	487.7475
78.2400	507.2300
78.2500	518.8700
78.2600	486.1650
78.2700	431.1350
78.2800	407.2350
78.2900	475.4425
78.3000	495.6175
78.3100	457.2375
78.3200	478.2825
78.3300	518.8525
78.3400	495.6325
78.3500	494.9375
78.3600	526.0900
78.3700	467.3800
78.3800	397.8250
78.3900	402.1725
78.4000	388.4100
78.4100	404.3375
78.4200	423.9175
78.4300	444.9125
78.4400	485.4950
78.4500	509.4125
78.4600	488.4300
78.4700	513.7225
78.4800	531.1800
78.4900	507.2575
78.5000	481.1825
78.5100	485.4800
78.5200	518.8125
78.5300	505.1175
78.5400	445.7175
78.5500	473.0850
78.5600	488.4600
78.5700	494.8700
78.5800	526.0675
78.5900	476.9400
78.6000	452.1300
78.6100	457.2700
78.6200	431.2075
78.6300	444.8500
78.6400	447.8800
78.6500	499.0825
78.6600	521.8250
78.6700	406.0925
78.6800	370.8925
78.6900	475.1100
78.7000	486.3950
78.7100	384.2925
78.7200	389.6475
78.7300	470.8725
78.7400	490.6175
78.7500	558.3950
78.7600	607.2850
78.7700	571.8575
78.7800	550.0000
78.7900	531.2425
78.8000	601.0650
78.8100	601.0300
78.8200	456.2425
78.8300	420.8325
78.8400	506.2425
78.8500	531.2550
78.8600	535.4100
78.8700	503.1450
78.8800	438.5575
78.8900	454.1425
78.9000	577.0125
78.9100	575.0650
78.9200	488.5700
78.9300	494.7600
78.9400	535.3950
78.9500	531.2750
78.9600	488.5800
78.9700	447.9450
78.9800	442.6925
78.9900	431.2825
79.0000	463.4575
79.0100	518.7150
79.0200	533.3325
79.0300	542.6875
79.0400	550.0000
79.0500	578.0600
79.0600	525.1825
79.0700	447.9650
79.0800	470.7350
79.0900	537.3975
79.1000	473.1850
79.1100	484.1250
79.1200	596.7325
79.1300	511.8450
79.1400	397.9775
79.1500	402.0200
79.1600	472.7200
79.1700	563.3750
79.1800	534.6175
79.1900	502.0125
79.2000	488.6500
79.2100	466.6675
79.2200	541.3600
79.2300	600.0000
79.2400	525.3225
79.2500	457.3325
79.2600	459.3325
79.2700	541.3200
79.2800	590.6700
79.2900	546.0150
79.3000	553.9825
79.3100	564.6775
79.3200	512.6925
79.3300	529.9625
79.3400	492.0675
79.3500	424.0100
79.3600	463.2825
79.3700	472.0350
79.3800	468.6425
79.3900	520.6125
79.4000	512.7225
79.4100	511.2875
79.4200	579.9200
79.4300	523.5050
79.4400	394.1075
79.4500	396.5725
79.4600	461.2725
79.4700	520.5825
79.4800	522.0650
79.4900	481.3800
79.5000	494.5950
79.5100	442.2000
79.5200	420.5625
79.5300	468.6125
79.5400	557.7775
79.5500	523.6200
79.5600	468.6075
79.5700	474.0300
79.5800	494.5725
79.5900	470.1625
79.6000	535.6300
79.6100	570.1725
79.6200	496.1425
79.6300	475.9625
79.6400	492.6300
79.6500	509.2950
79.6600	516.6675
79.6700	507.3750
79.6800	397.7900
79.6900	353.8300
79.7000	411.2025
79.7100	405.4675
79.7200	466.9250
79.7300	579.7675
79.7400	533.0925
79.7500	457.3825
79.7600	505.7025
79.7700	540.7175
79.7800	533.3325
79.7900	514.7725
79.8000	490.7200
79.8100	474.0550
79.8200	503.7775
79.8300	588.9950
79.8400	624.0575
79.8500	570.2925
79.8600	514.7850
79.8700	481.4550
79.8800	448.1225
79.8900	414.7925
79.9000	437.0800
79.9100	466.6675
79.9200	457.3975
79.9300	468.5350
79.9400	455.5350
79.9500	470.3925
79.9600	500.0000
79.9700	444.4225
79.9800	437.0475
79.9900	503.7100
80.0000	579.6325
80.0100	477.7850
80.0200	338.8925
80.0300	353.6950
80.0400	420.3575
80.0500	524.0375
80.0600	537.0650
80.0700	490.7475
80.0800	437.0750
80.0900	390.7500
80.1000	429.5825
80.1100	475.9150
80.1200	400.1050
80.1300	324.0875
80.1400	372.1400
80.1500	425.9100
80.1600	405.6025
80.1700	411.0600
80.1800	451.8150
80.1900	466.6675
80.2000	466.6675
80.2100	411.2375
80.2200	394.3775
80.2300	472.0825
80.2400	516.6675
80.2500	544.3675
80.2600	529.7350
80.2700	444.6100
80.2800	400.0000
80.2900	446.1475
80.3000	437.1900
80.3100	400.0000
80.3200	464.5850
80.3300	452.0900
80.3400	400.0000
80.3500	427.6700
80.3600	542.2200
80.3700	533.6775
80.3800	466.6675
80.3900	448.2300
80.4000	451.7700
80.4100	521.9675
80.4200	557.4500
80.4300	476.2850
80.4400	490.3725
80.4500	467.0900
80.4600	400.0000
80.4700	409.2100
80.4800	453.5025
80.4900	501.7500
80.5000	498.2525
80.5100	483.3325
80.5200	492.5375
80.5300	527.6100
80.5400	540.7975
80.5500	478.1275
80.5600	387.3350
80.5700	432.7900
80.5800	490.8025
80.5900	492.5300
80.6000	435.6325
80.6100	410.9150
80.6200	460.9125
80.6300	437.3750
80.6400	390.8100
80.6500	420.0925
80.6600	431.6225
80.6700	444.2275
80.6800	420.7350
80.6900	429.2575
80.7000	429.9325
80.7100	400.0000
80.7200	427.5450
80.7300	413.2800
80.7400	374.1550
80.7500	476.8000
80.7600	575.8425
80.7700	537.4550
80.7800	573.3950
80.7900	651.6800
80.8000	565.7750
80.8100	510.8450
80.8200	496.6550
80.8300	457.4975
80.8400	431.6650
80.8500	389.1700
80.8600	439.9825
80.8700	490.8375
80.8800	519.9825
80.8900	485.8725
80.9000	405.8550
80.9100	429.1250
80.9200	466.6675
80.9300	448.3550
80.9400	405.8700
80.9500	465.7150
80.9600	524.1800
80.9700	470.9125
80.9800	424.1825
80.9900	499.0025
81.0000	447.7525
81.0100	359.1450
81.0200	421.5350
81.0300	484.9525
81.0400	509.1425
81.0500	498.3850
81.0600	437.6350
81.0700	409.1375
81.0800	407.5300
81.0900	381.7275
81.1000	430.6075
81.1100	474.2000
81.1200	475.7975
81.1300	510.7250
81.1400	505.9450
81.1500	455.9500
81.1600	378.5750
81.1700	360.7075
81.1800	428.9525
81.1900	484.9125
81.2000	509.1200
81.2100	452.8275
81.2200	409.1175
81.2300	462.2525
81.2400	472.6525
81.2500	459.1150
81.2600	457.5525
81.2700	468.2225
81.2800	492.4425
81.2900	481.7825
81.3000	503.0975
81.3100	524.2275
81.3200	452.9350
81.3300	372.6900
81.3400	395.5100
81.3500	487.9350
81.3600	524.2350
81.3700	498.4725
81.3800	428.7550
81.3900	401.5225
81.4000	416.6675
81.4100	471.2175
81.4200	480.3050
81.4300	486.3575
81.4400	462.1400
81.4500	398.4950
81.4600	392.4175
81.4700	436.3325
81.4800	448.5025
81.4900	451.4950
81.5000	430.3500
81.5100	400.0000
81.5200	418.1525
81.5300	433.3325
81.5400	406.1150
81.5500	392.4050
81.5600	427.2100
81.5700	513.4800
81.5800	575.7325
81.5900	519.8750
81.6000	412.2825
81.6100	402.9150
81.6200	487.6975
81.6300	542.3925
81.6400	441.3075
81.6500	368.1125
81.6600	365.2250
81.6700	395.2650
81.6800	469.5400
81.6900	509.0500
81.7000	516.6675
81.7100	444.2925
81.7200	356.1975
81.7300	369.5075
81.7400	400.0000
81.7500	418.0800
81.7600	469.4900
81.7700	490.9625
81.7800	465.2625
81.7900	440.9650
81.8000	388.1700
81.8100	340.9700
81.8200	342.3625
81.8300	395.1375
81.8400	433.3325
81.8500	469.4300
81.8600	490.9775
81.8700	483.3325
81.8800	465.2950
81.8900	431.9650
81.9000	443.7150
81.9100	475.6800
81.9200	429.2575
81.9300	392.3450
81.9400	463.0650
81.9500	516.6675
81.9600	507.6600
81.9700	509.0050
81.9800	480.6575
81.9900	386.9950
82.0000	360.3300
82.0100	374.3350
82.0200	402.6500
82.0300	451.3200
82.0400	439.6900
82.0500	407.6775
82.0600	382.0225
82.0700	420.5875
82.0800	457.6825
82.0900	450.0000
82.1000	414.0750
82.1100	446.1900
82.1200	428.1775
82.1300	348.7150
82.1400	387.1800
82.1500	460.2500
82.1600	528.1875
82.1700	503.8850
82.1800	441.0325
82.1900	469.1950
82.2000	500.0000
82.2100	455.1925
82.2200	389.7875
82.2300	384.5825
82.2400	408.9550
82.2500	416.6675
82.2600	416.6675
82.2700	425.6175
82.2800	433.3325
82.2900	424.3875
82.3000	434.5550
82.3100	432.1150
82.3200	461.3700
82.3300	571.5100
82.3400	579.7125
82.3500	497.5925
82.3600	466.6675
82.3700	439.8725
82.3800	425.5950
82.3900	495.8225
82.4000	541.0750
82.4100	488.7175
82.4200	476.7625
82.4300	491.0800
82.4400	483.3325
82.4500	465.5025
82.4600	467.8275
82.4700	474.4225
82.4800	422.1200
82.4900	445.6825
82.5000	526.7150
82.5100	532.1950
82.5200	481.0625
82.5300	467.7975
82.5400	510.0250
82.5500	462.1750
82.5600	471.1425
82.5700	471.1000
82.5800	434.4450
82.5900	441.1125
82.6000	415.5650
82.6100	400.0000
82.6200	417.7600
82.6300	459.9675
82.6400	483.3325
82.6500	483.3325
82.6600	474.4625
82.6700	448.9275
82.6800	353.5275
82.6900	389.7150
82.7000	509.9225
82.7100	471.3075
82.7200	407.8075
82.7300	444.2825
82.7400	483.3325
82.7500	447.9250
82.7600	452.0650
82.7700	465.6375
82.7800	450.0000
82.7900	450.0000
82.8000	476.5225
82.8100	508.8375
82.8200	454.8125
82.8300	408.8350
82.8400	372.5075
82.8500	359.8225
82.8600	383.3325
82.8700	418.6325
82.8800	458.8225
82.8900	422.5650
82.9000	400.9700
82.9100	425.4825
82.9200	450.9600
82.9300	466.6675
82.9400	422.6225
82.9500	436.1700
82.9600	412.9025
82.9700	394.0075
82.9800	415.7350
82.9900	364.8125
83.0000	394.8950
83.0100	485.1675
83.0200	481.5075
83.0300	476.3625
83.0400	482.4300
83.0500	457.8850
83.0600	450.0000
83.0700	423.6675
83.0800	400.0000
83.0900	435.0900
83.1000	457.8975
83.1100	397.3950
83.1200	323.7050
83.1300	413.9125
83.1400	472.8675
83.1500	415.8175
83.1600	356.2250
83.1700	395.4375
83.1800	440.4175
83.1900	425.4150
83.2000	468.3125
83.2100	412.5775
83.2200	429.4700
83.2300	490.4550
83.2400	457.9325
83.2500	476.1950
83.2600	473.8125
83.2700	423.8200
83.2800	443.6200
83.2900	474.6125
83.3000	423.0725
83.3100	392.0500
83.3200	356.4325
83.3300	403.7750
83.3400	457.2100
83.3500	476.8600
83.3600	499.2600
83.3700	457.2325
83.3800	424.6350
83.3900	442.7500
83.4000	449.2825
83.4100	415.9550
83.4200	469.4925
83.4300	542.0175
83.4400	454.5100
83.4500	366.6675
83.4600	427.3950
83.4700	474.6600
83.4800	423.3175
83.4900	392.0000
83.5000	443.3225
83.5100	466.0100
83.5200	484.6350
83.5300	542.6350
83.5400	549.3600
83.5500	516.0325
83.5600	500.0000
83.5700	474.0675
83.5800	458.6425
83.5900	432.1125
83.6000	365.4575
83.6100	411.0300
83.6200	440.1850
83.6300	408.6275
83.6400	433.9150
83.6500	372.4100
83.6600	334.4725
83.6700	375.2825
83.6800	417.7825
83.6900	441.3900
83.7000	381.6950
83.7100	333.3325
83.7200	316.1325
83.7300	342.9850
83.7400	417.7100
83.7500	424.2275
83.7600	408.5875
83.7700	382.3275
83.7800	418.6550
83.7900	491.9125
83.8000	465.6975
83.8100	381.8975
83.8200	384.7525
83.8300	450.4675
83.8400	475.2300
83.8500	509.0150
83.8600	559.0050
83.8700	514.9000
83.8800	415.7975
83.8900	391.8800
83.9000	382.9100
83.9100	383.7500
83.9200	476.8425
83.9300	532.9300
83.9400	474.0075
83.9500	450.3900
83.9600	526.3425
83.9700	625.9425
83.9800	607.0350
83.9900	515.9375
84.0000	500.3575
84.0100	567.7200
84.0200	582.6450
84.0300	481.9800
84.0400	391.1700
84.0500	383.6575
84.0600	416.9850
84.0700	458.8000
84.0800	440.9050
84.0900	383.0350
84.1000	366.6675
84.1100	383.6175
84.1200	433.8875
84.1300	483.6050
84.1400	483.0700
84.1500	432.8200
84.1600	391.5425
84.1700	434.0625
84.1800	449.5275
84.1900	442.0100
84.2000	483.5550
84.2100	449.3525
84.2200	433.7500
84.2300	475.1000
84.2400	441.1800
84.2500	416.8550
84.2600	483.8750
84.2700	550.1725
84.2800	516.1675
84.2900	458.2525
84.3000	407.9525
84.3100	366.6675
84.3200	425.4825
84.3300	491.7325
84.3400	474.8150
84.3500	424.8250
84.3600	416.7750
84.3700	391.4125
84.3800	333.2400
84.3900	366.9275
84.4000	399.9200
84.4100	433.5500
84.4200	491.7000
84.4300	433.1050
84.4400	400.1000
84.4500	433.3325
84.4600	424.9825
84.4700	416.6675
84.4800	383.2950
84.4900	375.0175
84.5000	374.9925
84.5100	408.3225
84.5200	466.6675
84.5300	458.3425
84.5400	450.0000
84.5500	425.0500
84.5600	433.2500
84.5700	491.5925
84.5800	516.6675
84.5900	458.5600
84.6000	449.7825
84.6100	458.5350
84.6200	416.6675
84.6300	491.2350
84.6400	492.1350
84.6500	408.3900
84.6600	383.4525
84.6700	374.9350
84.6800	350.2725
84.6900	399.2800
84.7000	475.0750
84.7100	441.9075
84.7200	433.1650
84.7300	474.7350
84.7400	483.5175
84.7500	441.9550
84.7600	400.2000
84.7700	391.5625
84.7800	465.8000
84.7900	484.0075
84.8000	449.7675
84.8100	499.5175
84.8200	557.9575
84.8300	558.7200
84.8400	508.7325
84.8500	491.5300
84.8600	434.4675
84.8700	374.8550
84.8800	358.7825
84.8900	341.5125
84.9000	415.3975
84.9100	475.1625
84.9200	417.6700
84.9300	391.1525
84.9400	432.9825
84.9500	441.8475
84.9600	449.6325
84.9700	466.6675
84.9800	425.9650
84.9900	367.0600
85.0000	374.3950
85.0100	383.7450
85.0200	350.4200
85.0300	398.2825
85.0400	474.7800
85.0500	442.7850
85.0600	400.0000
85.0700	424.3025
85.0800	409.5175
85.0900	463.7700
85.1000	510.0550
85.1100	441.9175
85.1200	401.0200
85.1300	407.0350
85.1400	466.1375
85.1500	451.0750
85.1600	384.4250
85.1700	374.1675
85.1800	416.1025
85.1900	481.6125
85.2000	525.2925
85.2100	484.5175
85.2200	417.8700
85.2300	431.5025
85.2400	547.5200
85.2500	536.4800
85.2600	482.0550
85.2700	540.6950
85.2800	518.6400
85.2900	458.6675
85.3000	410.0250
85.3100	446.5700
85.3200	501.3900
85.3300	418.7800
85.3400	414.5225
85.3500	474.6375
85.3600	467.4000
85.3700	426.1150
85.3800	376.1300
85.3900	389.7600
85.4000	473.0700
85.4100	516.6675
85.4200	484.9175
85.4300	473.7975
85.4400	476.2175
85.4500	418.3100
85.4600	438.7575
85.4700	405.0450
85.4800	363.2625
85.4900	449.1400
85.5000	506.1575
85.5100	502.6425
85.5200	473.6650
85.5300	468.4675
85.5400	393.9450
85.5500	334.2550
85.5600	348.1375
85.5700	430.5100
85.5800	506.9050
85.5900	556.8900
85.6000	528.4025
85.6100	474.5100
85.6200	499.0075
85.6300	532.3300
85.6400	495.2125
85.6500	433.3325
85.6600	472.4150
85.6700	524.4775
85.6800	509.9150
85.6900	428.7275
85.7000	397.8475
85.7100	480.0750
85.7200	486.6225
85.7300	425.5525
85.7400	432.2150
85.7500	465.5375
85.7600	514.3875
85.7700	542.2425
85.7800	533.3325
85.7900	525.5850
85.8000	508.9250
85.8100	484.5250
85.8200	443.4725
85.8300	385.7625
85.8400	373.1625
85.8500	423.1450
85.8600	434.5800
85.8700	424.3700
85.8800	441.0325
85.8900	426.9200
85.9000	492.2525
85.9100	553.9075
85.9200	500.0000
85.9300	453.9725
85.9400	392.3350
85.9500	452.2725
85.9600	540.9875
85.9700	488.8100
85.9800	470.1675
85.9900	510.4200
86.0000	475.7025
86.0100	497.1700
86.0200	548.5750
86.0300	513.3650
86.0400	427.1725
86.0500	422.8100
86.0600	465.1950
86.0700	490.9250
86.0800	522.7575
86.0900	504.5200
86.1000	472.7225
86.1100	462.1575
86.1200	507.4200
86.1300	586.4400
86.1400	542.4500
86.1500	510.6975
86.1600	430.5575
86.1700	404.3325
86.1800	487.6375
86.1900	540.8550
86.2000	534.9700
86.2100	471.6100
86.2200	454.1850
86.2300	500.0000
86.2400	485.0175
86.2500	451.6950
86.2600	380.9750
86.2700	391.4025
86.2800	528.1375
86.2900	538.5650
86.3000	535.5200
86.3100	562.7525
86.3200	516.6675
86.3300	472.0450
86.3400	468.6825
86.3500	496.2100
86.3600	457.4175
86.3700	466.6675
86.3800	429.6350
86.3900	390.7325
86.4000	444.3625
86.4100	500.0000
86.4200	455.7125
86.4300	451.6250
86.4400	516.6675
86.4500	457.7675
86.4600	398.0450
86.4700	446.0650
86.4800	490.6775
86.4900	536.6850
86.5000	576.0025
86.5100	573.9900
86.5200	524.7925
86.5300	501.1775
86.5400	537.4475
86.5500	521.8950
86.5600	564.5825
86.5700	561.4775
86.5800	518.7750
86.5900	514.5450
86.6000	511.5350
86.6100	483.3325
86.6200	490.5850
86.6300	500.0000
86.6400	514.4800
86.6500	555.0325
86.6600	568.8800
86.6700	499.4625
86.6800	447.7600
86.6900	459.4600
86.7000	450.0000
86.7100	471.5775
86.7200	550.3025
86.7300	638.2050
86.7400	602.1125
86.7500	530.9975
86.7600	507.0450
86.7700	464.3050
86.7800	469.0425
86.7900	457.1375
86.8000	509.4575
86.8100	538.1675
86.8200	535.5900
86.8300	519.3325
86.8400	497.2725
86.8500	625.9175
86.8600	591.1575
86.8700	523.3350
86.8800	578.7700
86.8900	472.2350
86.9000	430.2275
86.9100	502.5550
86.9200	483.3325
86.9300	532.6225
86.9400	571.8625
86.9500	512.2525
86.9600	504.3925
86.9700	463.2050
86.9800	380.6775
86.9900	483.9850
87.0000	537.0775
87.0100	456.9850
87.0200	473.6450
87.0300	525.1525
87.0400	604.2225
87.0500	598.5550
87.0600	563.8975
87.0700	611.0975
87.0800	601.4650
87.0900	498.7025
87.1000	498.4325
87.1100	601.2250
87.1200	601.6700
87.1300	560.9200
87.1400	613.7800
87.1500	619.5700
87.1600	641.2475
87.1700	617.5925
87.1800	493.1400
87.1900	442.2200
87.2000	451.7800
87.2100	529.4875
87.2200	547.8075
87.2300	643.9550
87.2400	717.4075
87.2500	725.8250
87.2600	619.0700
87.2700	570.3750
87.2800	627.1375
87.2900	632.7825
87.3000	569.7950
87.3100	550.0000
87.3200	590.5225
87.3300	656.7450
87.3400	693.6200
87.3500	672.7600
87.3600	583.3325
87.3700	657.1975
87.3800	753.2525
87.3900	760.1300
87.4000	773.2350
87.4100	780.1175
87.4200	796.5950
87.4300	743.3375
87.4400	849.9325
87.4500	910.0875
87.4600	843.3550
87.4700	839.9700
87.4800	883.1400
87.4900	953.1950
87.5000	963.4975
87.5100	972.9575
87.5200	1026.7375
87.5300	1003.4900
87.5400	983.3325
87.5500	1016.1925
87.5600	1066.6675
87.5700	1138.7800
87.5800	1289.2850
87.5900	1448.0925
87.6000	1665.3125
87.6100	1753.6200
87.6200	1811.5125
87.6300	1985.3875
87.6400	2073.1650
87.6500	2115.7850
87.6600	2250.9325
87.6700	2454.5425
87.6800	2644.2500
87.6900	2727.9250
87.7000	2686.0125
87.7100	2787.5100
87.7200	3009.3425
87.7300	3266.8375
87.7400	3310.1900
87.7500	3166.6675
87.7600	3153.8700
87.7700	3088.6050
87.7800	2997.5225
87.7900	2883.8200
87.8000	2730.9075
87.8100	2598.3100
87.8200	2268.3075
87.8300	2031.6925
87.8400	2045.3525
87.8500	1983.3325
87.8600	1995.9575
87.8700	2029.2750
87.8800	2050.0000
87.8900	2037.4275
87.9000	1966.4425
87.9100	1883.3325
87.9200	1864.5525
87.9300	1908.3550
87.9400	2108.2500
87.9500	2233.3325
87.9600	2183.5300
87.9700	2062.7000
87.9800	2068.2850
87.9900	2226.7250
88.0000	2170.0100
88.0100	1919.0950
88.0200	1879.0100
88.0300	1906.1625
88.0400	1928.9750
88.0500	1999.1625
88.0600	1929.9250
88.0700	1556.3750
88.0800	1348.3125
88.0900	1334.9950
88.1000	1384.9675
88.1100	1380.1200
88.1200	1261.9275
88.1300	1233.4700
88.1400	1301.4900
88.1500	1162.1750
88.1600	1054.5750
88.1700	1009.1875
88.1800	912.4225
88.1900	768.5225
88.2000	773.4625
88.2100	897.3375
88.2200	821.3525
88.2300	728.2300
88.2400	659.7150
88.2500	784.5525
88.2600	798.8075
88.2700	766.6675
88.2800	754.7975
88.2900	691.8600
88.3000	640.3275
88.3100	677.4275
88.3200	613.5975
88.3300	581.4250
88.3400	694.1225
88.3500	648.1250
88.3600	542.3225
88.3700	501.7625
88.3800	543.3075
88.3900	476.6800
88.4000	427.5125
88.4100	474.7750
88.4200	565.9300
88.4300	539.1250
88.4400	515.3075
88.4500	473.0900
88.4600	562.7700
88.4700	615.4800
88.4800	555.7425
88.4900	572.4000
88.5000	600.5050
88.5100	576.1900
88.5200	478.0750
88.5300	522.7800
88.5400	583.7225
88.5500	622.3425
88.5600	571.0125
88.5700	433.0325
88.5800	439.5200
88.5900	550.4825
88.6000	622.2925
88.6100	605.2525
88.6200	527.5750
88.6300	539.2975
88.6400	622.0675
88.6500	538.7825
88.6600	461.0675
88.6700	483.3475
88.6800	588.9325
88.6900	505.6500
88.7000	472.1075
88.7100	500.1175
88.7200	455.6525
88.7300	460.8175
88.7400	522.1525
88.7500	533.3325
88.7600	538.8000
88.7700	533.6300
88.7800	516.3375
88.7900	555.4350
88.8000	539.5375
88.8100	450.8375
88.8200	404.9550
88.8300	450.0000
88.8400	482.3125
88.8500	533.8750
88.8600	483.9050
88.8700	428.5825
88.8800	420.7425
88.8900	553.3400
88.9000	677.3150
88.9100	673.4325
88.9200	584.8475
88.9300	511.3750
88.9400	521.1300
88.9500	556.1225
88.9600	528.0725
88.9700	506.1625
88.9800	483.3325
88.9900	483.3325
89.0000	446.7900
89.0100	392.7175
89.0200	455.2000
89.0300	461.4775
89.0400	465.5350
89.0500	463.8225
89.0600	393.6500
89.0700	416.6675
89.0800	447.4875
89.0900	491.0350
89.1000	464.0275
89.1100	538.4375
89.1200	544.9050
89.1300	492.6600
89.1400	400.0000
89.1500	430.3775
89.1600	484.8425
89.1700	424.7900
89.1800	401.8850
89.1900	523.4975
89.2000	596.6275
89.2100	545.0000
89.2200	558.2775
89.2300	586.7975
89.2400	536.5375
89.2500	558.5500
89.2600	485.1625
89.2700	464.8050
89.2800	500.0000
89.2900	480.3450
89.3000	457.8500
89.3100	511.7750
89.3200	485.3550
89.3300	469.4850
89.3400	550.6875
89.3500	604.2375
89.3600	552.6875
89.3700	566.2050
89.3800	512.2350
89.3900	578.5275
89.4000	547.4850
89.4100	485.6475
89.4200	445.2275
89.4300	442.8600
89.4400	457.1625
89.4500	447.5575
89.4600	488.0625
89.4700	495.2800
89.4800	488.0425
89.4900	514.0925
89.5000	540.6275
89.5100	511.9900
89.5200	509.3300
89.5300	528.6800
89.5400	516.6675
89.5500	525.9300
89.5600	573.1050
89.5700	610.2850
89.5800	527.0050
89.5900	471.2550
89.6000	510.7950
89.6100	597.0300
89.6200	619.6700
89.6300	565.1575
89.6400	512.1350
89.6500	495.4775
89.6600	456.2700
89.6700	374.3350
89.6800	367.9525
89.6900	421.1450
89.7000	469.0625
89.7100	539.9350
89.7200	448.8900
89.7300	395.5675
89.7400	392.1775
89.7500	438.7200
89.7600	530.7975
89.7700	616.6675
89.7800	564.1400
89.7900	451.5950
89.8000	576.1300
89.8100	619.5950
89.8200	524.6675
89.8300	512.9650
89.8400	562.9300
89.8500	574.2075
89.8600	487.1375
89.8700	445.7225
89.8800	441.8650
89.8900	458.1575
89.9000	450.3050
89.9100	491.5375
89.9200	508.8700
89.9300	612.2875
89.9400	516.4175
89.9500	445.9725
89.9600	537.5075
89.9700	541.6725
89.9800	479.2925
89.9900	391.5150
90.0000	466.6675
90.0100	446.0725
90.0200	403.8700
90.0300	474.8600
90.0400	504.0850
90.0500	516.6675
90.0600	516.6675
90.0700	528.8200
90.0800	590.9025
90.0900	646.5275
90.1000	575.3000
90.1100	537.9850
90.1200	511.9825
90.1300	530.0875
90.1400	482.5525
90.1500	533.3325
90.1600	537.2825
90.1700	557.8750
90.1800	555.8550
90.1900	462.7525
90.2000	422.6800
90.2100	360.5725
90.2200	450.0000
90.2300	434.5250
90.2400	402.6175
90.2500	474.3575
90.2600	503.8350
90.2700	509.0200
90.2800	479.5225
90.2900	485.6650
90.3000	568.9425
90.3100	610.6725
90.3200	510.7400
90.3300	425.8250
90.3400	411.2275
90.3500	442.5375
90.3600	401.7875
90.3700	346.2925
90.3800	362.9050
90.3900	462.9825
90.4000	483.0625
90.4100	559.7175
90.4200	420.3175
90.4300	418.7775
90.4400	370.2950
90.4500	383.3325
90.4600	401.3550
90.4700	481.0400
90.4800	526.1700
90.4900	492.8600
90.5000	480.9000
90.5100	540.4275
90.5200	548.9900
90.5300	479.8100
90.5400	473.6900
90.5500	528.0050
90.5600	570.5275
90.5700	347.2450
90.5800	434.6600
90.5900	535.5750
90.6000	454.5400
90.6100	582.8425
90.6200	509.8275
90.6300	476.5175
90.6400	480.5700
90.6500	586.4600
90.6600	523.2125
90.6700	490.0575
90.6800	523.3675
90.6900	536.6450
90.7000	483.3325
90.7100	489.9650
90.7200	523.2750
90.7300	526.9525
90.7400	443.1750
90.7500	486.6025
90.7600	496.7425
90.7700	460.6100
90.7800	392.5425
90.7900	490.3300
90.8000	456.4225
90.8100	492.9325
90.8200	530.1450
90.8300	532.5500
90.8400	603.1650
90.8500	600.9000
90.8600	530.1925
90.8700	513.5375
90.8800	518.7125
90.8900	596.8925
90.9000	570.9525
90.9100	501.2475
90.9200	451.7675
90.9300	539.4550
90.9400	569.7150
90.9500	577.2575
90.9600	559.0775
90.9700	593.9725
90.9800	557.6600
90.9900	516.6675
91.0000	504.7500
91.0100	455.9350
91.0200	492.2025
91.0300	551.0000
91.0400	621.6025
91.0500	563.7450
91.0600	561.6400
91.0700	599.2775
91.0800	505.1200
91.0900	464.3750
91.1000	541.9225
91.1100	569.0750
91.1200	497.1600
91.1300	488.9900
91.1400	505.4000
91.1500	464.0275
91.1600	544.5075
91.1700	605.5650
91.1800	625.0225
91.1900	588.8500
91.2000	600.1825
91.2100	511.1950
91.2200	505.1275
91.2300	613.9550
91.2400	581.0925
91.2500	477.9550
91.2600	444.6450
91.2700	427.3325
91.2800	501.9150
91.2900	597.3575
91.3000	572.8075
91.3100	495.7075
91.3200	385.9425
91.3300	405.1925
91.3400	438.5025
91.3500	487.2550
91.3600	574.3800
91.3700	438.4350
91.3800	479.3600
91.3900	544.9450
91.4000	511.6350
91.4100	480.8300
91.4200	459.1875
91.4300	411.7050
91.4400	400.6200
91.4500	495.0850
91.4600	471.5600
91.4700	517.0450
91.4800	621.5125
91.4900	640.3525
91.5000	588.1350
91.5100	602.3350
91.5200	504.7800
91.5300	449.8925
91.5400	554.7075
91.5500	573.9625
91.5600	512.0050
91.5700	483.3325
91.5800	504.1075
91.5900	612.6625
91.6000	487.9025
91.6100	518.9400
91.6200	522.0225
91.6300	447.7500
91.6400	424.3775
91.6500	388.9450
91.6600	542.1975
91.6700	595.5900
91.6800	551.3125
91.6900	460.9100
91.7000	528.9925
91.7100	497.8400
91.7200	502.6600
91.7300	620.5175
91.7400	522.7100
91.7500	452.1125
91.7600	477.1750
91.7700	556.2700
91.7800	570.8950
91.7900	381.1400
91.8000	487.4450
91.8100	520.7550
91.8200	556.1000
91.8300	600.0000
91.8400	581.9050
91.8500	452.0000
91.8600	468.6550
91.8700	487.2850
91.8800	506.8425
91.8900	433.3325
91.9000	439.1600
91.9100	491.0575
91.9200	534.6450
91.9300	422.3900
91.9400	474.2550
91.9500	531.4475
91.9600	507.2950
91.9700	437.0600
91.9800	477.7750
91.9900	561.1450
92.0000	503.8650
92.0100	405.4525
92.0200	464.4500
92.0300	576.1525
92.0400	514.8825
92.0500	491.1375
92.0600	430.7550
92.0700	548.2500
92.0800	533.3325
92.0900	533.3325
92.1000	523.0375
92.1100	435.0375
92.1200	465.2425
92.1300	589.9050
92.1400	493.3150
92.1500	438.3125
92.1600	484.9825
92.1700	498.3625
92.1800	489.8400
92.1900	562.9225
92.2000	684.9375
92.2100	690.4425
92.2200	600.0000
92.2300	582.7225
92.2400	432.2625
92.2500	569.3975
92.2600	439.4825
92.2700	507.6300
92.2800	571.2125
92.2900	450.0000
92.3000	452.9850
92.3100	481.8525
92.3200	471.0775
92.3300	516.6675
92.3400	505.0775
92.3500	386.2075
92.3600	433.7825
92.3700	609.5900
92.3800	530.5250
92.3900	506.9675
92.4000	587.4800
92.4100	637.4475
92.4200	675.1725
92.4300	572.5400
92.4400	462.0450
92.4500	597.3450
92.4600	560.0850
92.4700	488.5550
92.4800	553.8825
92.4900	598.7175
92.5000	583.3325
92.5100	580.8100
92.5200	548.7500
92.5300	542.0125
92.5400	638.9400
92.5500	500.0000
92.5600	508.4500
92.5700	616.6675
92.5800	615.4800
92.5900	598.8250
92.6000	584.4975
92.6100	595.3875
92.6200	527.6225
92.6300	457.9200
92.6400	566.6675
92.6500	568.8875
92.6600	603.2975
92.6700	639.1175
92.6800	484.4100
92.6900	507.4675
92.7000	607.1625
92.7100	466.6675
92.7200	467.7025
92.7300	486.4050
92.7400	526.2400
92.7500	419.6750
92.7600	467.6575
92.7700	482.3525
92.7800	467.6375
92.7900	487.1725
92.8000	551.8975
92.8100	575.8250
92.8200	449.0725
92.8300	438.8375
92.8400	532.4275
92.8500	511.2900
92.8600	424.6375
92.8700	568.4175
92.8800	599.1350
92.8900	585.8950
92.9000	629.1150
92.9100	553.3325
92.9200	622.4250
92.9300	730.0850
92.9400	660.2525
92.9500	531.7500
92.9600	499.2200
92.9700	484.1025
92.9800	503.0400
92.9900	566.6675
93.0000	564.4500
93.0100	521.0375
93.0200	615.2300
93.0300	584.0400
93.0400	600.6975
93.0500	614.6050
93.0600	569.3750
93.0700	629.3350
93.0800	537.2700
93.0900	635.2725
93.1000	678.8825
93.1100	566.6675
93.1200	566.6675
93.1300	563.0375
93.1400	463.6925
93.1500	389.7625
93.1600	567.2400
93.1700	585.5900
93.1800	651.1075
93.1900	678.9825
93.2000	548.9325
93.2100	517.1900
93.2200	539.4950
93.2300	731.3200
93.2400	662.7200
93.2500	532.8500
93.2600	519.5050
93.2700	612.5000
93.2800	464.8550
93.2900	403.1000
93.3000	518.3975
93.3100	584.6025
93.3200	632.9200
93.3300	615.0550
93.3400	550.7850
93.3500	582.1850
93.3600	532.5875
93.3700	501.4525
93.3800	567.0200
93.3900	581.9600
93.4000	517.3350
93.4100	548.0575
93.4200	453.7675
93.4300	651.5200
93.4400	729.8025
93.4500	535.3250
93.4600	652.1975
93.4700	781.7425
93.4800	681.5475
93.4900	568.3850
93.5000	681.9200
93.5100	582.6550
93.5200	534.6325
93.5300	632.5075
93.5400	566.0750
93.5500	515.1675
93.5600	385.6450
93.5700	600.3375
93.5800	634.1250
93.5900	714.8800
93.6000	517.7825
93.6100	649.2200
93.6200	550.3600
93.6300	600.4425
93.6400	666.3625
93.6500	617.0350
93.6600	682.6750
93.6700	550.1450
93.6800	583.4600
93.6900	616.4500
93.7000	550.2675
93.7100	649.9650
93.7200	633.3600
93.7300	650.0825
93.7400	733.2625
93.7500	566.6875
93.7600	599.9775
93.7700	600.0000
93.7800	716.4575
93.7900	600.2750
93.8000	683.0900
93.8100	683.3325
93.8200	616.9350
93.8300	616.6675
93.8400	583.5050
93.8500	450.7550
93.8600	599.0675
93.8700	748.9850
93.8800	716.9100
93.8900	584.3800
93.9000	715.5475
93.9100	650.5950
93.9200	600.4750
93.9300	665.9975
93.9400	666.6675
93.9500	699.6300
93.9600	667.0550
93.9700	748.9850
93.9800	766.4550
93.9900	816.0050
94.0000	783.7925
94.0100	717.6200
94.0200	650.9900
94.0300	715.6425
94.0400	765.8725
94.0500	914.2025
94.0600	851.1300
94.0700	866.3750
94.0800	817.5675
94.0900	653.0875
94.1000	650.0000
94.1100	780.7225
94.1200	750.6700
94.1300	831.6150
94.1400	719.1325
94.1500	765.5850
94.1600	864.4500
94.1700	882.9550
94.1800	867.0525
94.1900	882.9375
94.2000	1029.7025
94.2100	903.2975
94.2200	948.7375
94.2300	998.7125
94.2400	983.7700
94.2500	1113.1000
94.2600	1084.2425
94.2700	921.2925
94.2800	981.4500
94.2900	1193.7700
94.3000	1200.0000
94.3100	1070.6350
94.3200	1082.8300
94.3300	1212.5675
94.3400	1297.3975
94.3500	1364.5500
94.3600	1673.1275
94.3700	1554.3625
94.3800	1453.3200
94.3900	1594.9450
94.4000	1712.6800
94.4100	1925.8225
94.4200	1917.2525
94.4300	2125.6125
94.4400	2293.9800
94.4500	2508.7375
94.4600	2468.5200
94.4700	2546.8700
94.4800	2838.5900
94.4900	3058.3225
94.5000	3258.8700
94.5100	3506.8025
94.5200	3596.6725
94.5300	4031.8225
94.5400	4145.9125
94.5500	4645.3100
94.5600	5465.1675
94.5700	5851.1700
94.5800	6169.8025
94.5900	6087.6525
94.6000	6051.4550
94.6100	5970.3425
94.6200	5616.3425
94.6300	5854.6575
94.6400	5198.5075
94.6500	4880.4500
94.6600	4564.6925
94.6700	4518.2275
94.6800	4659.5725
94.6900	4444.4750
94.7000	3925.7050
94.7100	3535.3125
94.7200	3389.8775
94.7300	3335.8100
94.7400	2937.4900
94.7500	2900.8400
94.7600	2789.2675
94.7700	2783.3325
94.7800	2546.2675
94.7900	2580.7250
94.8000	2772.8125
94.8100	2814.9000
94.8200	3242.6050
94.8300	2967.0675
94.8400	2855.4325
94.8500	3464.4075
94.8600	3625.9750
94.8700	3176.8775
94.8800	3291.5950
94.8900	3693.1450
94.9000	3496.6050
94.9100	3389.0625
94.9200	3807.3625
94.9300	3660.6575
94.9400	3351.8725
94.9500	3098.0725
94.9600	3271.4600
94.9700	2954.2550
94.9800	2745.3700
94.9900	2388.8850
95.0000	2444.9175
95.0100	2277.9250
95.0200	1969.5725
95.0300	2090.6675
95.0400	1881.2775
95.0500	1632.4200
95.0600	1679.1050
95.0700	1636.5250
95.0800	1477.3675
95.0900	1295.1775
95.1000	1283.3325
95.1100	1205.4475
95.1200	1075.4375
95.1300	1097.7950
95.1400	1084.4425
95.1500	1021.1300
95.1600	907.8550
95.1700	729.0775
95.1800	840.9225
95.1900	943.1525
95.2000	1043.1150
95.2100	925.8950
95.2200	792.6125
95.2300	674.8300
95.2400	759.6325
95.2500	844.1075
95.2600	942.8925
95.2700	795.2425
95.2800	783.3325
95.2900	798.7975
95.3000	769.0850
95.3100	751.2150
95.3200	595.5475
95.3300	691.4075
95.3400	808.0325
95.3500	708.6750
95.3600	607.4725
95.3700	677.0775
95.3800	775.7900
95.3900	690.9125
95.4000	590.9475
95.4100	691.0775
95.4200	700.0000
95.4300	592.3375
95.4400	737.0775
95.4500	734.6325
95.4600	748.6975
95.4700	673.2150
95.4800	620.6125
95.4900	632.0125
95.5000	633.3325
95.5100	740.6750
95.5200	673.3550
95.5300	681.9900
95.5400	668.0150
95.5500	743.2275
95.5600	612.2400
95.5700	554.0975
95.5800	595.8875
95.5900	554.1300
95.6000	626.4250
95.6100	725.0100
95.6200	626.4150
95.6300	586.1300
95.6400	598.5975
95.6500	584.7425
95.6600	690.1025
95.6700	700.0000
95.6800	623.7900
95.6900	708.0875
95.7000	610.0450
95.7100	508.6425
95.7200	560.8850
95.7300	551.4500
95.7400	641.2650
95.7500	634.7950
95.7600	618.1325
95.7700	616.6675
95.7800	692.6200
95.7900	639.2575
95.8000	587.7925
95.8100	537.8075
95.8200	563.6750
95.8300	596.9975
95.8400	690.9625
95.8500	593.9100
95.8600	583.3325
95.8700	613.6250
95.8800	586.3850
95.8900	522.7875
95.9000	546.9300
95.9100	655.8850
95.9200	560.8150
95.9300	595.3500
95.9400	554.6625
95.9500	670.8600
95.9600	532.3050
95.9700	531.7650
95.9800	638.9875
95.9900	619.8225
96.0000	511.0775
96.0100	605.5575
96.0200	631.7425
96.0300	542.9100
96.0400	563.4650
96.0500	641.9750
96.0600	665.0575
96.0700	546.2475
96.0800	518.2850
96.0900	576.8400
96.1000	598.3725
96.1100	720.2775
96.1200	688.2425
96.1300	668.3075
96.1400	591.5575
96.1500	628.3850
96.1600	753.4375
96.1700	691.6225
96.1800	518.2850
96.1900	620.0000
96.2000	618.3375
96.2100	541.7075
96.2200	518.3450
96.2300	696.4675
96.2400	731.6450
96.2500	643.4825
96.2600	708.1875
96.2700	671.7675
96.2800	666.6675
96.2900	591.8725
96.3000	673.0600
96.3100	578.6800
96.3200	491.9350
96.3300	498.2750
96.3400	514.9375
96.3500	591.3400
96.3600	644.7925
96.3700	694.7800
96.3800	714.9225
96.3900	776.3425
96.4000	634.1825
96.4100	437.7325
96.4200	535.9250
96.4300	579.8075
96.4400	553.5325
96.4500	713.8575
96.4600	629.0875
96.4700	586.8900
96.4800	627.9875
96.4900	484.5225
96.5000	496.4225
96.5100	604.1175
96.5200	735.6275
96.5300	601.3350
96.5400	553.6075
96.5500	505.4225
96.5600	381.1550
96.5700	544.8925
96.5800	640.9100
96.5900	590.6200
96.6000	553.6500
96.6100	609.3525
96.6200	601.8325
96.6300	540.6750
96.6400	622.3000
96.6500	574.0350
96.6600	596.3075
96.6700	585.1825
96.6800	494.4475
96.6900	527.7650
96.7000	681.4075
96.7100	611.1750
96.7200	511.1950
96.7300	618.3800
96.7400	544.5675
96.7500	488.9600
96.7600	453.7575
96.7700	509.1375
96.7800	561.0100
96.7900	522.3325
96.8000	501.8925
96.8100	573.8600
96.8200	627.6400
96.8300	559.5050
96.8400	535.2375
96.8500	636.6500
96.8600	561.4625
96.8700	520.4925
96.8800	546.1675
96.8900	608.9900
96.9000	439.7350
96.9100	578.8225
96.9200	570.5225
96.9300	537.1950
96.9400	489.1350
96.9500	439.1450
96.9600	389.1525
96.9700	618.9150
96.9800	561.6750
96.9900	520.5650
97.0000	546.0975
97.0100	550.0000
97.0200	594.1300
97.0300	614.7075
97.0400	601.9625
97.0500	614.7025
97.0600	484.3800
97.0700	496.0575
97.0800	588.1575
97.0900	541.2375
97.1000	636.1475
97.1100	620.6300
97.1200	690.0800
97.1300	597.2425
97.1400	583.3325
97.1500	686.0550
97.1600	758.6875
97.1700	810.6750
97.1800	669.9975
97.1900	650.0000
97.2000	576.6900
97.2100	508.0300
97.2200	631.9100
97.2300	664.6550
97.2400	564.1050
97.2500	520.7000
97.2600	560.6075
97.2700	625.2450
97.2800	691.9025
97.2900	700.0000
97.3000	597.5375
97.3100	583.3325
97.3200	612.5975
97.3300	719.0800
97.3400	557.7975
97.3500	533.3325
97.3600	562.5800
97.3700	595.9100
97.3800	702.3325
97.3900	643.5825
97.4000	633.3325
97.4100	516.4350
97.4200	602.2700
97.4300	558.2350
97.4400	652.2400
97.4500	739.6850
97.4600	589.3850
97.4700	493.6700
97.4800	497.9300
97.4900	456.2150
97.5000	566.7425
97.5100	612.5150
97.5200	631.2550
97.5300	589.5725
97.5400	583.3325
97.5500	539.5850
97.5600	679.1400
97.5700	656.2650
97.5800	620.8475
97.5900	602.0925
97.6000	541.7075
97.6100	649.9000
97.6200	695.8050
97.6300	612.5975
97.6400	614.5650
97.6500	674.9200
97.6600	668.7725
97.6700	622.9875
97.6800	616.6675
97.6900	631.2225
97.7000	546.0075
97.7100	649.7525
97.7200	681.2175
97.7300	610.5900
97.7400	643.6400
97.7500	635.4550
97.7600	662.4200
97.7700	652.1250
97.7800	737.2400
97.7900	691.8475
97.8000	567.0400
97.8100	680.8150
97.8200	685.4675
97.8300	741.4600
97.8400	720.9400
97.8500	629.4950
97.8600	573.0850
97.8700	711.9200
97.8800	675.2375
97.8900	565.0100
97.9000	550.0000
97.9100	579.0375
97.9200	655.9225
97.9300	666.6675
97.9400	565.0650
97.9500	637.0775
97.9600	577.4425
97.9700	566.6675
97.9800	581.1750
97.9900	510.7975
98.0000	572.5300
98.0100	757.3875
98.0200	594.7925
98.0300	610.1725
98.0400	645.6675
98.0500	505.0100
98.0600	439.8400
98.0700	592.7925
98.0800	645.6575
98.0900	621.0125
98.1000	674.6350
98.1100	784.7700
98.1200	611.6325
98.1300	539.8675
98.1400	533.3325
98.1500	562.3050
98.1600	537.6975
98.1700	518.8500
98.1800	603.5600
98.1900	544.2625
98.2000	605.7325
98.2100	703.5400
98.2200	673.2350
98.2300	710.0950
98.2400	673.2400
98.2500	536.4000
98.2600	502.1925
98.2700	673.6625
98.2800	714.4700
98.2900	658.7875
98.3000	606.5950
98.3100	527.6625
98.3200	574.5325
98.3300	583.3325
98.3400	641.1900
98.3500	650.0000
98.3600	577.6875
98.3700	682.3575
98.3800	642.1575
98.3900	662.2525
98.4000	695.5825
98.4100	584.3400
98.4200	508.8400
98.4300	528.9125
98.4400	547.7875
98.4500	651.1775
98.4600	710.0250
98.4700	629.9550
98.4800	631.1175
98.4900	604.4325
98.5000	643.3475
98.5100	606.6550
98.5200	527.7600
98.5300	516.6675
98.5400	603.3425
98.5500	645.5575
98.5600	592.2225
98.5700	525.5575
98.5800	559.9950
98.5900	595.5500
98.6000	672.2075
98.6100	683.3325
98.6200	611.1325
98.6300	498.9250
98.6400	598.8425
98.6500	558.9150
98.6600	463.3775
98.6700	579.9275
98.6800	585.5650
98.6900	727.6850
98.7000	576.7875
98.7100	550.0000
98.7200	622.1650
98.7300	647.7650
98.7400	563.4075
98.7500	448.9800
98.7600	433.3325
98.7700	491.0550
98.7800	673.1550
98.7900	671.1425
98.8000	580.0975
98.8100	537.8100
98.8200	446.7700
98.8300	548.7475
98.8400	566.6675
98.8500	537.8150
98.8600	504.4825
98.8700	485.5750
98.8800	512.1825
98.8900	487.8200
98.9000	555.4500
98.9100	566.6675
98.9200	710.8900
98.9300	776.6000
98.9400	725.6475
98.9500	630.1400
98.9600	587.8250
98.9700	597.7525
98.9800	600.0000
98.9900	542.3225
99.0000	533.3325
99.0100	576.5900
99.0200	511.2425
99.0300	471.1650
99.0400	538.7550
99.0500	535.5825
99.0600	547.7500
99.0700	593.2500
99.0800	556.7500
99.0900	564.4150
99.1000	696.4075
99.1100	601.3425
99.1200	698.6550
99.1300	586.9325
99.1400	552.2525
99.1500	578.8275
99.1600	727.4750
99.1700	793.2425
99.1800	641.4500
99.1900	659.9075
99.2000	652.2525
99.2100	477.0450
99.2200	550.8900
99.2300	609.9050
99.2400	587.8425
99.2500	597.7450
99.2600	643.2350
99.2700	563.5300
99.2800	564.4125
99.2900	566.6675
99.3000	696.3700
99.3100	659.0225
99.3200	549.1225
99.3300	590.9775
99.3400	600.0000
99.3500	499.1250
99.3600	526.5650
99.3700	576.5650
99.3800	525.6925
99.3900	459.0250
99.4000	464.4100
99.4100	596.3600
99.4200	631.0775
99.4300	604.5125
99.4400	614.4100
99.4500	688.7175
99.4600	627.9500
99.4700	544.6175
99.4800	562.1525
99.4900	566.6675
99.5000	624.3075
99.5100	604.5125
99.5200	600.0000
99.5300	585.5900
99.5400	583.3325
99.5500	612.1525
99.5600	659.8975
99.5700	709.8975
99.5800	630.2050
99.5900	559.0250
99.6000	593.2300
99.6100	686.4625
99.6200	757.6425
99.6300	709.0250
99.6400	613.5350
99.6500	585.5900
99.6600	597.7450
99.6700	643.2325
99.6800	621.1775
99.6900	659.9000
99.7000	508.1425
99.7100	512.1550
99.7200	617.5475
99.7300	575.6875
99.7400	537.8425
99.7500	562.1575
99.7600	624.3150
99.7700	705.3950
99.7800	644.6050
99.7900	575.6825
99.8000	537.8400
99.8100	663.0500
99.8200	596.8550
99.8300	511.2650
99.8400	586.4825
99.8500	556.7575
99.8600	477.9300
99.8700	567.5675
99.8800	511.2600
99.8900	615.3175
99.9000	633.3325
99.9100	546.8425
99.9200	605.4100
99.9300	559.0025
99.9400	650.9125
99.9500	580.1700
99.9600	552.2500
99.9700	550.0000
99.9800	550.0000
99.9900	550.0000
100.0000	550.0000
