*FILE_COMMENT	""
*FILE_MD5	""
*FILE_MEMO	"Nifilterin"
*FILE_OPERATOR	"Administrator"
*FILE_PACKAGE_NAME	""
*FILE_PART_ID	"GeneralMeasurement"
*FILE_SAMPLE	"NaCl"
*FILE_SYSTEM_NAME	"MiniFlex"
*FILE_TYPE	"RAS_RAW"
*FILE_USERGROUP	"Administrators"
*FILE_VERSION	"1"
*HW_ATTACHMENT_NAME_INTERNAL	"StandardSampleHolder"
*HW_COUNTER_ID-0	"CUT0025"
*HW_COUNTER_ID-2	"CMC0020"
*HW_COUNTER_MONOCHRO_ID	"CMC0020"
*HW_COUNTER_MONOCHRO_NAME	"None"
*HW_COUNTER_MONOCHRO_NAME_INTERNAL	"None"
*HW_COUNTER_NAME_INTERNAL	"DteX100"
*HW_COUNTER_NAME-0	"DteX100"
*HW_COUNTER_NAME-1	"None"
*HW_COUNTER_NAME-2	"None"
*HW_COUNTER_PIXEL_SIZE	"0.1"
*HW_COUNTER_SELECT_NAME	"DteX100"
*HW_GONIOMETER_ID	"GON0021"
*HW_GONIOMETER_NAME	"Standard"
*HW_GONIOMETER_NAME_INTERNAL	"Standard"
*HW_GONIOMETER_RADIUS-0	"90.0"
*HW_GONIOMETER_RADIUS-1	"114.0"
*HW_GONIOMETER_RADIUS-2	"91.5"
*HW_GONIOMETER_RADIUS-3	"150.0"
*HW_GONIOMETER_RADIUS-4	"103.4"
*HW_GONIOMETER_RADIUS-5	"150.0"
*HW_GONIOMETER_RADIUS-6	"46.6"
*HW_GONIOMETER_RADIUS-7	"150.0"
*HW_I_CBO_ID	"CBO0020"
*HW_I_CBO_NAME	"No_unit"
*HW_I_CBO_NAME_INTERNAL	"No_unit"
*HW_I_MONOCHRO_NAME_INTERNAL	"Manual"
*HW_I_OPT_ID-1	"CBO0020"
*HW_I_PRIMARY_NAME_INTERNAL	"No_unit"
*HW_I_SLIT_NAME_INTERNAL	"Manual"
*HW_R_ATTENUATER_AUTOMODE	"0"
*HW_R_ATTENUATER_ID	"ATN0020"
*HW_R_ATTENUATER_NAME	"No_unit"
*HW_R_ATTENUATOR_NAME_INTERNAL	"No_unit"
*HW_R_OPT_ID-1	"RCR0023"
*HW_R_OPT_ID-4	"ATN0020"
*HW_R_ROD_ID	"RCR0023"
*HW_R_ROD_NAME	"No_unit"
*HW_R_ROD_NAME_INTERNAL	"No_unit"
*HW_R_RPS_NAME_INTERNAL	"Manual"
*HW_R_RS_NAME_INTERNAL	"Manual"
*HW_R_SS_NAME_INTERNAL	"Manual"
*HW_SAMPLE_HOLDER_NAME_INTERNAL	"None"
*HW_SAMPLE_NAME	"None"
*HW_SAMPLE_NAME_INTERNAL	"None"
*HW_SAMPLE_PLATE_NAME	"None"
*HW_SAMPLE_PLATE_NAME_INTERNAL	"None"
*HW_SAMPLE_SPACER_NAME	"None"
*HW_SAMPLE_SPACER_NAME_INTERNAL	"None"
*HW_USERINFO_CATALOG_NO	""
*HW_USERINFO_INSTRUMENT_ID	""
*HW_USERINFO_INSTRUMENT_NAME	""
*HW_USERINFO_INSTRUMENT_NO	""
*HW_USERINFO_MODEL	""
*HW_USERINFO_ORDER_NO	""
*HW_USERINFO_SERIAL_NO	""
*HW_USERINFO_VERIFY_INSTRUMENT_ID	"00-07-fe-03-07-9c"
*HW_VER_RCD_COUNTER_UNIT	"N/A"
*HW_VER_RCD_CPU	"10.1.3"
*HW_VER_RCD_FPGA	"4.0.4"
*HW_VER_RCD_GONIO_UNIT	"0.0.0"
*HW_VER_RCD_INCIDENT_UNIT	"0.0.0"
*HW_VER_RCD_RECEIVING_UNIT	"0.0.0"
*HW_VER_RCD_TYPE	"RINCII"
*HW_VER_XGC_CPU	"10.1.3"
*HW_VER_XGC_CW	"5.5.6"
*HW_VER_XGC_HV	"5.5.6"
*HW_VER_XGC_RS1	"5.5.6"
*HW_VER_XGC_RS2	"N/A"
*HW_VER_XGC_RT	"N/A"
*HW_VER_XGC_TYPE	"RINCII"
*HW_XG_CURRENT_UNIT	"mA"
*HW_XG_FOCUS	"0.4mm x 12mm"
*HW_XG_FOCUS_TYPE	"LongFineToshiba"
*HW_XG_TARGET_ATOMIC_NUMBER	"29"
*HW_XG_TARGET_NAME	"Cu"
*HW_XG_TYPE	"Hermetic"
*HW_XG_VOLTAGE_UNIT	"kV"
*HW_XG_WAVE_LENGTH_ALPHA1	"1.540593"
*HW_XG_WAVE_LENGTH_ALPHA2	"1.544414"
*HW_XG_WAVE_LENGTH_BETA	"1.392246"
*HW_XG_WAVE_LENGTH_UNIT	"Angstrom"
*MEAS_COND_AXIS_NAME_INTERNAL-0	"TwoThetaTheta"
*MEAS_COND_AXIS_NAME_INTERNAL-1	"IncidentSollerSlit"
*MEAS_COND_AXIS_NAME_INTERNAL-10	"ReceivingSlitBox1"
*MEAS_COND_AXIS_NAME_INTERNAL-11	"ReceivingSlitBox1"
*MEAS_COND_AXIS_NAME_INTERNAL-12	"Filter"
*MEAS_COND_AXIS_NAME_INTERNAL-13	"ReceivingSollerSlit"
*MEAS_COND_AXIS_NAME_INTERNAL-14	"ReceivingSlitBox2"
*MEAS_COND_AXIS_NAME_INTERNAL-15	"ReceivingSlitBox2"
*MEAS_COND_AXIS_NAME_INTERNAL-16	"ReceivingSlitBox2"
*MEAS_COND_AXIS_NAME_INTERNAL-17	"PHA"
*MEAS_COND_AXIS_NAME_INTERNAL-18	"RS3"
*MEAS_COND_AXIS_NAME_INTERNAL-19	"Target_TargetTime"
*MEAS_COND_AXIS_NAME_INTERNAL-2	"IncidentSlitBox"
*MEAS_COND_AXIS_NAME_INTERNAL-20	"Target_XrayOnTime"
*MEAS_COND_AXIS_NAME_INTERNAL-21	"Target_IG"
*MEAS_COND_AXIS_NAME_INTERNAL-22	"Target_GP"
*MEAS_COND_AXIS_NAME_INTERNAL-23	"Target_FC"
*MEAS_COND_AXIS_NAME_INTERNAL-24	"HVPS_Bias"
*MEAS_COND_AXIS_NAME_INTERNAL-25	"HVPS_HVPSTime"
*MEAS_COND_AXIS_NAME_INTERNAL-26	"HVPS_Type1Time"
*MEAS_COND_AXIS_NAME_INTERNAL-27	"HVPS_Type2Time"
*MEAS_COND_AXIS_NAME_INTERNAL-28	"HVPS_Type3Time"
*MEAS_COND_AXIS_NAME_INTERNAL-29	"CW_IERTime"
*MEAS_COND_AXIS_NAME_INTERNAL-3	"IncidentSlitBox"
*MEAS_COND_AXIS_NAME_INTERNAL-30	"CW_WaterHose"
*MEAS_COND_AXIS_NAME_INTERNAL-31	"CW_CoolingWater"
*MEAS_COND_AXIS_NAME_INTERNAL-32	"CW_ECTime"
*MEAS_COND_AXIS_NAME_INTERNAL-33	"CW_Flow1"
*MEAS_COND_AXIS_NAME_INTERNAL-34	"CW_Temperature1"
*MEAS_COND_AXIS_NAME_INTERNAL-35	"CW_Pressure1"
*MEAS_COND_AXIS_NAME_INTERNAL-36	"CW_PressureIn"
*MEAS_COND_AXIS_NAME_INTERNAL-37	"CW_PressureOut"
*MEAS_COND_AXIS_NAME_INTERNAL-38	"CW_Flow2"
*MEAS_COND_AXIS_NAME_INTERNAL-39	"CW_Temperature2"
*MEAS_COND_AXIS_NAME_INTERNAL-4	"IncidentSlitBox"
*MEAS_COND_AXIS_NAME_INTERNAL-40	"CW_Pressure2"
*MEAS_COND_AXIS_NAME_INTERNAL-41	"RE_EnclosureTemp"
*MEAS_COND_AXIS_NAME_INTERNAL-42	"RE_EnclosureHummidity"
*MEAS_COND_AXIS_NAME_INTERNAL-43	"RE_CabinetTemp"
*MEAS_COND_AXIS_NAME_INTERNAL-44	"RE_RPTemp"
*MEAS_COND_AXIS_NAME_INTERNAL-45	"RE_ShutterAXrayOnTime"
*MEAS_COND_AXIS_NAME_INTERNAL-46	"RE_ShutterATimes"
*MEAS_COND_AXIS_NAME_INTERNAL-47	"RE_ShutterAOpenCloseTime"
*MEAS_COND_AXIS_NAME_INTERNAL-48	"RE_ShutterACloseOpenTime"
*MEAS_COND_AXIS_NAME_INTERNAL-49	"RE_ShutterBXrayOnTime"
*MEAS_COND_AXIS_NAME_INTERNAL-5	"IncidentAxdSlit"
*MEAS_COND_AXIS_NAME_INTERNAL-50	"RE_ShutterBTimes"
*MEAS_COND_AXIS_NAME_INTERNAL-51	"RE_ShutterBOpenCloseTime"
*MEAS_COND_AXIS_NAME_INTERNAL-52	"RE_ShutterBCloseOpenTime"
*MEAS_COND_AXIS_NAME_INTERNAL-53	"RE_XrayWarningRamp"
*MEAS_COND_AXIS_NAME_INTERNAL-54	"RE_ShutterAInstallation"
*MEAS_COND_AXIS_NAME_INTERNAL-55	"RE_ShutterARamp"
*MEAS_COND_AXIS_NAME_INTERNAL-56	"RE_ShutterBInstallation"
*MEAS_COND_AXIS_NAME_INTERNAL-57	"RE_ShutterBRamp"
*MEAS_COND_AXIS_NAME_INTERNAL-58	"RE_ExtShutterCLS"
*MEAS_COND_AXIS_NAME_INTERNAL-59	"RE_ExtXrayOFF"
*MEAS_COND_AXIS_NAME_INTERNAL-6	"IncidentAxdSlit"
*MEAS_COND_AXIS_NAME_INTERNAL-60	"RE_ExtSafetyCircuit"
*MEAS_COND_AXIS_NAME_INTERNAL-61	"Version_CPU"
*MEAS_COND_AXIS_NAME_INTERNAL-62	"Version_RS1"
*MEAS_COND_AXIS_NAME_INTERNAL-63	"Version_RS2"
*MEAS_COND_AXIS_NAME_INTERNAL-64	"Version_HV"
*MEAS_COND_AXIS_NAME_INTERNAL-65	"Version_CW"
*MEAS_COND_AXIS_NAME_INTERNAL-66	"Version_RT"
*MEAS_COND_AXIS_NAME_INTERNAL-67	"IncidentPrimary"
*MEAS_COND_AXIS_NAME_INTERNAL-68	"IncidentMonochromator"
*MEAS_COND_AXIS_NAME_INTERNAL-69	"ReceivingOptics"
*MEAS_COND_AXIS_NAME_INTERNAL-7	"IncidentAxdSlit"
*MEAS_COND_AXIS_NAME_INTERNAL-70	"CounterMonochromatorKind"
*MEAS_COND_AXIS_NAME_INTERNAL-8	"Filter"
*MEAS_COND_AXIS_NAME_INTERNAL-9	"ReceivingSlitBox1"
*MEAS_COND_AXIS_NAME-0	"TwoThetaTheta"
*MEAS_COND_AXIS_NAME-1	"IncidentSollerSlit"
*MEAS_COND_AXIS_NAME-10	"ReceivingSlitBox1-_Axis"
*MEAS_COND_AXIS_NAME-11	"SlitSS"
*MEAS_COND_AXIS_NAME-12	"Filter"
*MEAS_COND_AXIS_NAME-13	"ReceivingSollerSlit"
*MEAS_COND_AXIS_NAME-14	"ReceivingSlitBox2"
*MEAS_COND_AXIS_NAME-15	"ReceivingSlitBox2-_Axis"
*MEAS_COND_AXIS_NAME-16	"SlitRS"
*MEAS_COND_AXIS_NAME-17	"PHA"
*MEAS_COND_AXIS_NAME-18	"RS3"
*MEAS_COND_AXIS_NAME-19	"Target_TargetTime"
*MEAS_COND_AXIS_NAME-2	"IncidentSlitBox"
*MEAS_COND_AXIS_NAME-20	"Target_XrayOnTime"
*MEAS_COND_AXIS_NAME-21	"Target_IG"
*MEAS_COND_AXIS_NAME-22	"Target_GP"
*MEAS_COND_AXIS_NAME-23	"Target_FC"
*MEAS_COND_AXIS_NAME-24	"HVPS_Bias"
*MEAS_COND_AXIS_NAME-25	"HVPS_HVPSTime"
*MEAS_COND_AXIS_NAME-26	"HVPS_Type1Time"
*MEAS_COND_AXIS_NAME-27	"HVPS_Type2Time"
*MEAS_COND_AXIS_NAME-28	"HVPS_Type3Time"
*MEAS_COND_AXIS_NAME-29	"CW_IERTime"
*MEAS_COND_AXIS_NAME-3	"IncidentSlitBox-_Axis"
*MEAS_COND_AXIS_NAME-30	"CW_WaterHose"
*MEAS_COND_AXIS_NAME-31	"CW_CoolingWater"
*MEAS_COND_AXIS_NAME-32	"CW_ECTime"
*MEAS_COND_AXIS_NAME-33	"CW_Flow1"
*MEAS_COND_AXIS_NAME-34	"CW_Temperature1"
*MEAS_COND_AXIS_NAME-35	"CW_Pressure1"
*MEAS_COND_AXIS_NAME-36	"CW_PressureIn"
*MEAS_COND_AXIS_NAME-37	"CW_PressureOut"
*MEAS_COND_AXIS_NAME-38	"CW_Flow2"
*MEAS_COND_AXIS_NAME-39	"CW_Temperature2"
*MEAS_COND_AXIS_NAME-4	"SlitDS"
*MEAS_COND_AXIS_NAME-40	"CW_Pressure2"
*MEAS_COND_AXIS_NAME-41	"RE_EnclosureTemp"
*MEAS_COND_AXIS_NAME-42	"RE_EnclosureHummidity"
*MEAS_COND_AXIS_NAME-43	"RE_CabinetTemp"
*MEAS_COND_AXIS_NAME-44	"RE_RPTemp"
*MEAS_COND_AXIS_NAME-45	"RE_ShutterAXrayOnTime"
*MEAS_COND_AXIS_NAME-46	"RE_ShutterATimes"
*MEAS_COND_AXIS_NAME-47	"RE_ShutterAOpenCloseTime"
*MEAS_COND_AXIS_NAME-48	"RE_ShutterACloseOpenTime"
*MEAS_COND_AXIS_NAME-49	"RE_ShutterBXrayOnTime"
*MEAS_COND_AXIS_NAME-5	"IncidentAxdSlit"
*MEAS_COND_AXIS_NAME-50	"RE_ShutterBTimes"
*MEAS_COND_AXIS_NAME-51	"RE_ShutterBOpenCloseTime"
*MEAS_COND_AXIS_NAME-52	"RE_ShutterBCloseOpenTime"
*MEAS_COND_AXIS_NAME-53	"RE_XrayWarningRamp"
*MEAS_COND_AXIS_NAME-54	"RE_ShutterAInstallation"
*MEAS_COND_AXIS_NAME-55	"RE_ShutterARamp"
*MEAS_COND_AXIS_NAME-56	"RE_ShutterBInstallation"
*MEAS_COND_AXIS_NAME-57	"RE_ShutterBRamp"
*MEAS_COND_AXIS_NAME-58	"RE_ExtShutterCLS"
*MEAS_COND_AXIS_NAME-59	"RE_ExtXrayOFF"
*MEAS_COND_AXIS_NAME-6	"LLS"
*MEAS_COND_AXIS_NAME-60	"RE_ExtSafetyCircuit"
*MEAS_COND_AXIS_NAME-61	"Version_CPU"
*MEAS_COND_AXIS_NAME-62	"Version_RS1"
*MEAS_COND_AXIS_NAME-63	"Version_RS2"
*MEAS_COND_AXIS_NAME-64	"Version_HV"
*MEAS_COND_AXIS_NAME-65	"Version_CW"
*MEAS_COND_AXIS_NAME-66	"Version_RT"
*MEAS_COND_AXIS_NAME-67	"IncidentPrimary"
*MEAS_COND_AXIS_NAME-68	"IncidentMonochromator"
*MEAS_COND_AXIS_NAME-69	"ReceivingOptics"
*MEAS_COND_AXIS_NAME-7	"DHLSlit"
*MEAS_COND_AXIS_NAME-70	"CounterMonochromatorKind"
*MEAS_COND_AXIS_NAME-8	"Filter"
*MEAS_COND_AXIS_NAME-9	"ReceivingSlitBox1"
*MEAS_COND_AXIS_OFFSET-0	"0"
*MEAS_COND_AXIS_OFFSET-1	"0"
*MEAS_COND_AXIS_OFFSET-10	"0"
*MEAS_COND_AXIS_OFFSET-11	"0"
*MEAS_COND_AXIS_OFFSET-12	"0"
*MEAS_COND_AXIS_OFFSET-13	"0"
*MEAS_COND_AXIS_OFFSET-14	"0"
*MEAS_COND_AXIS_OFFSET-15	"0"
*MEAS_COND_AXIS_OFFSET-16	"0"
*MEAS_COND_AXIS_OFFSET-17	"0"
*MEAS_COND_AXIS_OFFSET-18	"0"
*MEAS_COND_AXIS_OFFSET-19	"0"
*MEAS_COND_AXIS_OFFSET-2	"0"
*MEAS_COND_AXIS_OFFSET-20	"0"
*MEAS_COND_AXIS_OFFSET-21	"0"
*MEAS_COND_AXIS_OFFSET-22	"0"
*MEAS_COND_AXIS_OFFSET-23	"0"
*MEAS_COND_AXIS_OFFSET-24	"0"
*MEAS_COND_AXIS_OFFSET-25	"0"
*MEAS_COND_AXIS_OFFSET-26	"0"
*MEAS_COND_AXIS_OFFSET-27	"0"
*MEAS_COND_AXIS_OFFSET-28	"0"
*MEAS_COND_AXIS_OFFSET-29	"0"
*MEAS_COND_AXIS_OFFSET-3	"0"
*MEAS_COND_AXIS_OFFSET-30	"0"
*MEAS_COND_AXIS_OFFSET-31	"0"
*MEAS_COND_AXIS_OFFSET-32	"0"
*MEAS_COND_AXIS_OFFSET-33	"0"
*MEAS_COND_AXIS_OFFSET-34	"0"
*MEAS_COND_AXIS_OFFSET-35	"0"
*MEAS_COND_AXIS_OFFSET-36	"0"
*MEAS_COND_AXIS_OFFSET-37	"0"
*MEAS_COND_AXIS_OFFSET-38	"0"
*MEAS_COND_AXIS_OFFSET-39	"0"
*MEAS_COND_AXIS_OFFSET-4	"0"
*MEAS_COND_AXIS_OFFSET-40	"0"
*MEAS_COND_AXIS_OFFSET-41	"0"
*MEAS_COND_AXIS_OFFSET-42	"0"
*MEAS_COND_AXIS_OFFSET-43	"0"
*MEAS_COND_AXIS_OFFSET-44	"0"
*MEAS_COND_AXIS_OFFSET-45	"0"
*MEAS_COND_AXIS_OFFSET-46	"0"
*MEAS_COND_AXIS_OFFSET-47	"0"
*MEAS_COND_AXIS_OFFSET-48	"0"
*MEAS_COND_AXIS_OFFSET-49	"0"
*MEAS_COND_AXIS_OFFSET-5	"0"
*MEAS_COND_AXIS_OFFSET-50	"0"
*MEAS_COND_AXIS_OFFSET-51	"0"
*MEAS_COND_AXIS_OFFSET-52	"0"
*MEAS_COND_AXIS_OFFSET-53	"0"
*MEAS_COND_AXIS_OFFSET-54	"0"
*MEAS_COND_AXIS_OFFSET-55	"0"
*MEAS_COND_AXIS_OFFSET-56	"0"
*MEAS_COND_AXIS_OFFSET-57	"0"
*MEAS_COND_AXIS_OFFSET-58	"0"
*MEAS_COND_AXIS_OFFSET-59	"0"
*MEAS_COND_AXIS_OFFSET-6	"0"
*MEAS_COND_AXIS_OFFSET-60	"0"
*MEAS_COND_AXIS_OFFSET-61	"0"
*MEAS_COND_AXIS_OFFSET-62	"0"
*MEAS_COND_AXIS_OFFSET-63	"0"
*MEAS_COND_AXIS_OFFSET-64	"0"
*MEAS_COND_AXIS_OFFSET-65	"0"
*MEAS_COND_AXIS_OFFSET-66	"0"
*MEAS_COND_AXIS_OFFSET-67	"0"
*MEAS_COND_AXIS_OFFSET-68	"0"
*MEAS_COND_AXIS_OFFSET-69	"0"
*MEAS_COND_AXIS_OFFSET-7	"0"
*MEAS_COND_AXIS_OFFSET-70	"0"
*MEAS_COND_AXIS_OFFSET-8	"0"
*MEAS_COND_AXIS_OFFSET-9	"0"
*MEAS_COND_AXIS_POSITION-0	"12.0000"
*MEAS_COND_AXIS_POSITION-1	"Soller_slit_2.5deg"
*MEAS_COND_AXIS_POSITION-10	"8.0mm"
*MEAS_COND_AXIS_POSITION-11	"8.0mm"
*MEAS_COND_AXIS_POSITION-12	"K_beta_x1.5"
*MEAS_COND_AXIS_POSITION-13	"Soller_slit_2.5deg"
*MEAS_COND_AXIS_POSITION-14	"Open"
*MEAS_COND_AXIS_POSITION-15	"Open"
*MEAS_COND_AXIS_POSITION-16	"Open"
*MEAS_COND_AXIS_POSITION-17	"36"
*MEAS_COND_AXIS_POSITION-18	"Open"
*MEAS_COND_AXIS_POSITION-19	""
*MEAS_COND_AXIS_POSITION-2	"1.25deg"
*MEAS_COND_AXIS_POSITION-20	"23.783333"
*MEAS_COND_AXIS_POSITION-21	"0.000000"
*MEAS_COND_AXIS_POSITION-22	""
*MEAS_COND_AXIS_POSITION-23	"0.000000"
*MEAS_COND_AXIS_POSITION-24	"0.000000"
*MEAS_COND_AXIS_POSITION-25	""
*MEAS_COND_AXIS_POSITION-26	""
*MEAS_COND_AXIS_POSITION-27	""
*MEAS_COND_AXIS_POSITION-28	""
*MEAS_COND_AXIS_POSITION-29	"0.000000"
*MEAS_COND_AXIS_POSITION-3	"1.25deg"
*MEAS_COND_AXIS_POSITION-30	""
*MEAS_COND_AXIS_POSITION-31	""
*MEAS_COND_AXIS_POSITION-32	""
*MEAS_COND_AXIS_POSITION-33	"4.270000"
*MEAS_COND_AXIS_POSITION-34	"0.000000"
*MEAS_COND_AXIS_POSITION-35	"0.000000"
*MEAS_COND_AXIS_POSITION-36	""
*MEAS_COND_AXIS_POSITION-37	""
*MEAS_COND_AXIS_POSITION-38	"0.000000"
*MEAS_COND_AXIS_POSITION-39	"0.000000"
*MEAS_COND_AXIS_POSITION-4	"1.25deg"
*MEAS_COND_AXIS_POSITION-40	"0.000000"
*MEAS_COND_AXIS_POSITION-41	"0.000000"
*MEAS_COND_AXIS_POSITION-42	""
*MEAS_COND_AXIS_POSITION-43	"33.000000"
*MEAS_COND_AXIS_POSITION-44	""
*MEAS_COND_AXIS_POSITION-45	""
*MEAS_COND_AXIS_POSITION-46	""
*MEAS_COND_AXIS_POSITION-47	""
*MEAS_COND_AXIS_POSITION-48	""
*MEAS_COND_AXIS_POSITION-49	""
*MEAS_COND_AXIS_POSITION-5	"10mm"
*MEAS_COND_AXIS_POSITION-50	"93.000000"
*MEAS_COND_AXIS_POSITION-51	"0.000000"
*MEAS_COND_AXIS_POSITION-52	"0.000000"
*MEAS_COND_AXIS_POSITION-53	""
*MEAS_COND_AXIS_POSITION-54	"OFF"
*MEAS_COND_AXIS_POSITION-55	""
*MEAS_COND_AXIS_POSITION-56	"ON"
*MEAS_COND_AXIS_POSITION-57	""
*MEAS_COND_AXIS_POSITION-58	""
*MEAS_COND_AXIS_POSITION-59	""
*MEAS_COND_AXIS_POSITION-6	"10mm"
*MEAS_COND_AXIS_POSITION-60	"CLOSE"
*MEAS_COND_AXIS_POSITION-61	"10.1.3"
*MEAS_COND_AXIS_POSITION-62	"5.5.6"
*MEAS_COND_AXIS_POSITION-63	"N/A"
*MEAS_COND_AXIS_POSITION-64	"5.5.6"
*MEAS_COND_AXIS_POSITION-65	"5.5.6"
*MEAS_COND_AXIS_POSITION-66	"N/A"
*MEAS_COND_AXIS_POSITION-67	"No_unit"
*MEAS_COND_AXIS_POSITION-68	"Manual"
*MEAS_COND_AXIS_POSITION-69	"No_unit"
*MEAS_COND_AXIS_POSITION-7	"10mm"
*MEAS_COND_AXIS_POSITION-70	"None"
*MEAS_COND_AXIS_POSITION-8	"None"
*MEAS_COND_AXIS_POSITION-9	"8.0mm"
*MEAS_COND_AXIS_RESOLUTION-0	"0.0025"
*MEAS_COND_AXIS_RESOLUTION-1	""
*MEAS_COND_AXIS_RESOLUTION-10	""
*MEAS_COND_AXIS_RESOLUTION-11	""
*MEAS_COND_AXIS_RESOLUTION-12	""
*MEAS_COND_AXIS_RESOLUTION-13	""
*MEAS_COND_AXIS_RESOLUTION-14	""
*MEAS_COND_AXIS_RESOLUTION-15	""
*MEAS_COND_AXIS_RESOLUTION-16	""
*MEAS_COND_AXIS_RESOLUTION-17	"1"
*MEAS_COND_AXIS_RESOLUTION-18	"0.1"
*MEAS_COND_AXIS_RESOLUTION-19	"0.01"
*MEAS_COND_AXIS_RESOLUTION-2	""
*MEAS_COND_AXIS_RESOLUTION-20	"0.010000"
*MEAS_COND_AXIS_RESOLUTION-21	"1"
*MEAS_COND_AXIS_RESOLUTION-22	"1"
*MEAS_COND_AXIS_RESOLUTION-23	"0.01"
*MEAS_COND_AXIS_RESOLUTION-24	"1"
*MEAS_COND_AXIS_RESOLUTION-25	"0.01"
*MEAS_COND_AXIS_RESOLUTION-26	"0.01"
*MEAS_COND_AXIS_RESOLUTION-27	"0.01"
*MEAS_COND_AXIS_RESOLUTION-28	"0.01"
*MEAS_COND_AXIS_RESOLUTION-29	"0.010000"
*MEAS_COND_AXIS_RESOLUTION-3	""
*MEAS_COND_AXIS_RESOLUTION-30	"0.01"
*MEAS_COND_AXIS_RESOLUTION-31	"0.01"
*MEAS_COND_AXIS_RESOLUTION-32	"1"
*MEAS_COND_AXIS_RESOLUTION-33	"0.100000"
*MEAS_COND_AXIS_RESOLUTION-34	"1.000000"
*MEAS_COND_AXIS_RESOLUTION-35	"0.010000"
*MEAS_COND_AXIS_RESOLUTION-36	"0.01"
*MEAS_COND_AXIS_RESOLUTION-37	"0.01"
*MEAS_COND_AXIS_RESOLUTION-38	"0.1"
*MEAS_COND_AXIS_RESOLUTION-39	"1"
*MEAS_COND_AXIS_RESOLUTION-4	""
*MEAS_COND_AXIS_RESOLUTION-40	"0.01"
*MEAS_COND_AXIS_RESOLUTION-41	"1.000000"
*MEAS_COND_AXIS_RESOLUTION-42	"1"
*MEAS_COND_AXIS_RESOLUTION-43	"1.000000"
*MEAS_COND_AXIS_RESOLUTION-44	"1"
*MEAS_COND_AXIS_RESOLUTION-45	"0.01"
*MEAS_COND_AXIS_RESOLUTION-46	"1"
*MEAS_COND_AXIS_RESOLUTION-47	"1"
*MEAS_COND_AXIS_RESOLUTION-48	"1"
*MEAS_COND_AXIS_RESOLUTION-49	"0.01"
*MEAS_COND_AXIS_RESOLUTION-5	""
*MEAS_COND_AXIS_RESOLUTION-50	"1.000000"
*MEAS_COND_AXIS_RESOLUTION-51	"1.000000"
*MEAS_COND_AXIS_RESOLUTION-52	"1.000000"
*MEAS_COND_AXIS_RESOLUTION-53	"-"
*MEAS_COND_AXIS_RESOLUTION-54	"-"
*MEAS_COND_AXIS_RESOLUTION-55	"-"
*MEAS_COND_AXIS_RESOLUTION-56	"1.000000"
*MEAS_COND_AXIS_RESOLUTION-57	"-"
*MEAS_COND_AXIS_RESOLUTION-58	"-"
*MEAS_COND_AXIS_RESOLUTION-59	"-"
*MEAS_COND_AXIS_RESOLUTION-6	""
*MEAS_COND_AXIS_RESOLUTION-60	"1.000000"
*MEAS_COND_AXIS_RESOLUTION-61	"1.000000"
*MEAS_COND_AXIS_RESOLUTION-62	"1.000000"
*MEAS_COND_AXIS_RESOLUTION-63	"1.000000"
*MEAS_COND_AXIS_RESOLUTION-64	"1.000000"
*MEAS_COND_AXIS_RESOLUTION-65	"1.000000"
*MEAS_COND_AXIS_RESOLUTION-66	"1.000000"
*MEAS_COND_AXIS_RESOLUTION-7	""
*MEAS_COND_AXIS_RESOLUTION-8	""
*MEAS_COND_AXIS_RESOLUTION-9	""
*MEAS_COND_AXIS_STATE-0	"Scan"
*MEAS_COND_AXIS_STATE-1	"Fixed"
*MEAS_COND_AXIS_STATE-10	"Fixed"
*MEAS_COND_AXIS_STATE-11	"Fixed"
*MEAS_COND_AXIS_STATE-12	"Fixed"
*MEAS_COND_AXIS_STATE-13	"Fixed"
*MEAS_COND_AXIS_STATE-14	"Fixed"
*MEAS_COND_AXIS_STATE-15	"Fixed"
*MEAS_COND_AXIS_STATE-16	"Fixed"
*MEAS_COND_AXIS_STATE-17	"Fixed"
*MEAS_COND_AXIS_STATE-18	"Fixed"
*MEAS_COND_AXIS_STATE-19	"Fixed"
*MEAS_COND_AXIS_STATE-2	"Fixed"
*MEAS_COND_AXIS_STATE-20	"Fixed"
*MEAS_COND_AXIS_STATE-21	"Fixed"
*MEAS_COND_AXIS_STATE-22	"Fixed"
*MEAS_COND_AXIS_STATE-23	"Fixed"
*MEAS_COND_AXIS_STATE-24	"Fixed"
*MEAS_COND_AXIS_STATE-25	"Fixed"
*MEAS_COND_AXIS_STATE-26	"Fixed"
*MEAS_COND_AXIS_STATE-27	"Fixed"
*MEAS_COND_AXIS_STATE-28	"Fixed"
*MEAS_COND_AXIS_STATE-29	"Fixed"
*MEAS_COND_AXIS_STATE-3	"Fixed"
*MEAS_COND_AXIS_STATE-30	"Fixed"
*MEAS_COND_AXIS_STATE-31	"Fixed"
*MEAS_COND_AXIS_STATE-32	"Fixed"
*MEAS_COND_AXIS_STATE-33	"Fixed"
*MEAS_COND_AXIS_STATE-34	"Fixed"
*MEAS_COND_AXIS_STATE-35	"Fixed"
*MEAS_COND_AXIS_STATE-36	"Fixed"
*MEAS_COND_AXIS_STATE-37	"Fixed"
*MEAS_COND_AXIS_STATE-38	"Fixed"
*MEAS_COND_AXIS_STATE-39	"Fixed"
*MEAS_COND_AXIS_STATE-4	"Fixed"
*MEAS_COND_AXIS_STATE-40	"Fixed"
*MEAS_COND_AXIS_STATE-41	"Fixed"
*MEAS_COND_AXIS_STATE-42	"Fixed"
*MEAS_COND_AXIS_STATE-43	"Fixed"
*MEAS_COND_AXIS_STATE-44	"Fixed"
*MEAS_COND_AXIS_STATE-45	"Fixed"
*MEAS_COND_AXIS_STATE-46	"Fixed"
*MEAS_COND_AXIS_STATE-47	"Fixed"
*MEAS_COND_AXIS_STATE-48	"Fixed"
*MEAS_COND_AXIS_STATE-49	"Fixed"
*MEAS_COND_AXIS_STATE-5	"Fixed"
*MEAS_COND_AXIS_STATE-50	"Fixed"
*MEAS_COND_AXIS_STATE-51	"Fixed"
*MEAS_COND_AXIS_STATE-52	"Fixed"
*MEAS_COND_AXIS_STATE-53	"Fixed"
*MEAS_COND_AXIS_STATE-54	"Fixed"
*MEAS_COND_AXIS_STATE-55	"Fixed"
*MEAS_COND_AXIS_STATE-56	"Fixed"
*MEAS_COND_AXIS_STATE-57	"Fixed"
*MEAS_COND_AXIS_STATE-58	"Fixed"
*MEAS_COND_AXIS_STATE-59	"Fixed"
*MEAS_COND_AXIS_STATE-6	"Fixed"
*MEAS_COND_AXIS_STATE-60	"Fixed"
*MEAS_COND_AXIS_STATE-61	"Fixed"
*MEAS_COND_AXIS_STATE-62	"Fixed"
*MEAS_COND_AXIS_STATE-63	"Fixed"
*MEAS_COND_AXIS_STATE-64	"Fixed"
*MEAS_COND_AXIS_STATE-65	"Fixed"
*MEAS_COND_AXIS_STATE-66	"Fixed"
*MEAS_COND_AXIS_STATE-7	"Fixed"
*MEAS_COND_AXIS_STATE-8	"Fixed"
*MEAS_COND_AXIS_STATE-9	"Fixed"
*MEAS_COND_AXIS_UNIT-0	"deg"
*MEAS_COND_AXIS_UNIT-1	""
*MEAS_COND_AXIS_UNIT-10	""
*MEAS_COND_AXIS_UNIT-11	""
*MEAS_COND_AXIS_UNIT-12	""
*MEAS_COND_AXIS_UNIT-13	""
*MEAS_COND_AXIS_UNIT-14	""
*MEAS_COND_AXIS_UNIT-15	""
*MEAS_COND_AXIS_UNIT-16	""
*MEAS_COND_AXIS_UNIT-17	"div"
*MEAS_COND_AXIS_UNIT-18	""
*MEAS_COND_AXIS_UNIT-19	"H"
*MEAS_COND_AXIS_UNIT-2	""
*MEAS_COND_AXIS_UNIT-20	"H"
*MEAS_COND_AXIS_UNIT-21	"mV"
*MEAS_COND_AXIS_UNIT-22	"V"
*MEAS_COND_AXIS_UNIT-23	"V"
*MEAS_COND_AXIS_UNIT-24	"V"
*MEAS_COND_AXIS_UNIT-25	"H"
*MEAS_COND_AXIS_UNIT-26	"H"
*MEAS_COND_AXIS_UNIT-27	"H"
*MEAS_COND_AXIS_UNIT-28	"H"
*MEAS_COND_AXIS_UNIT-29	"H"
*MEAS_COND_AXIS_UNIT-3	""
*MEAS_COND_AXIS_UNIT-30	"H"
*MEAS_COND_AXIS_UNIT-31	"H"
*MEAS_COND_AXIS_UNIT-32	"uS/m"
*MEAS_COND_AXIS_UNIT-33	"L/min"
*MEAS_COND_AXIS_UNIT-34	"degree"
*MEAS_COND_AXIS_UNIT-35	"MPa"
*MEAS_COND_AXIS_UNIT-36	"MPa"
*MEAS_COND_AXIS_UNIT-37	"MPa"
*MEAS_COND_AXIS_UNIT-38	"L/min"
*MEAS_COND_AXIS_UNIT-39	"C"
*MEAS_COND_AXIS_UNIT-4	""
*MEAS_COND_AXIS_UNIT-40	"MPa"
*MEAS_COND_AXIS_UNIT-41	"degree"
*MEAS_COND_AXIS_UNIT-42	"percent"
*MEAS_COND_AXIS_UNIT-43	"degree"
*MEAS_COND_AXIS_UNIT-44	"C"
*MEAS_COND_AXIS_UNIT-45	"H"
*MEAS_COND_AXIS_UNIT-46	"time"
*MEAS_COND_AXIS_UNIT-47	"msec"
*MEAS_COND_AXIS_UNIT-48	"msec"
*MEAS_COND_AXIS_UNIT-49	"H"
*MEAS_COND_AXIS_UNIT-5	""
*MEAS_COND_AXIS_UNIT-50	"times"
*MEAS_COND_AXIS_UNIT-51	"msec"
*MEAS_COND_AXIS_UNIT-52	"msec"
*MEAS_COND_AXIS_UNIT-53	"-"
*MEAS_COND_AXIS_UNIT-54	"-"
*MEAS_COND_AXIS_UNIT-55	"-"
*MEAS_COND_AXIS_UNIT-56	""
*MEAS_COND_AXIS_UNIT-57	"-"
*MEAS_COND_AXIS_UNIT-58	"-"
*MEAS_COND_AXIS_UNIT-59	"-"
*MEAS_COND_AXIS_UNIT-6	""
*MEAS_COND_AXIS_UNIT-60	""
*MEAS_COND_AXIS_UNIT-61	""
*MEAS_COND_AXIS_UNIT-62	""
*MEAS_COND_AXIS_UNIT-63	""
*MEAS_COND_AXIS_UNIT-64	""
*MEAS_COND_AXIS_UNIT-65	""
*MEAS_COND_AXIS_UNIT-66	""
*MEAS_COND_AXIS_UNIT-67	""
*MEAS_COND_AXIS_UNIT-68	""
*MEAS_COND_AXIS_UNIT-69	""
*MEAS_COND_AXIS_UNIT-7	""
*MEAS_COND_AXIS_UNIT-70	""
*MEAS_COND_AXIS_UNIT-8	""
*MEAS_COND_AXIS_UNIT-9	""
*MEAS_COND_COUNTER_ADJUSTMENTMETHOD	""
*MEAS_COND_COUNTER_CENTER_X	"0.5"
*MEAS_COND_COUNTER_CENTER_Y	"63.92"
*MEAS_COND_COUNTER_COUNTMODE	"Differential"
*MEAS_COND_COUNTER_DEADTIMECORRECTION	"Enabled"
*MEAS_COND_COUNTER_DISTANCE	"150"
*MEAS_COND_COUNTER_ENERGYMODE	"Standard"
*MEAS_COND_COUNTER_PHA_UNIT	"div"
*MEAS_COND_COUNTER_PHABASE	"36"
*MEAS_COND_COUNTER_PHAWINDOW	"26"
*MEAS_COND_COUNTER_PITCH_X	"20"
*MEAS_COND_COUNTER_PITCH_Y	"0.1"
*MEAS_COND_COUNTER_PITCHUNIT	"mm"
*MEAS_COND_COUNTER_VALIDWIDTH_X	"1"
*MEAS_COND_COUNTER_VALIDWIDTH_Y	"200"
*MEAS_COND_XG_CURRENT	"15"
*MEAS_COND_XG_VOLTAGE	"40"
*MEAS_COND_XG_WAVE_TYPE	"Ka"
*MEAS_DATA_COUNT	"9001"
*MEAS_SCAN_AXIS_X	"TwoThetaTheta"
*MEAS_SCAN_AXIS_X_INTERNAL	"TwoThetaTheta"
*MEAS_SCAN_END_TIME "04/26/2024 13:41:50"
*MEAS_SCAN_MODE	"CONTINUOUS"
*MEAS_SCAN_MODE_INTERNAL	"TDI_1D"
*MEAS_SCAN_RESOLUTION_X	"0.0025"
*MEAS_SCAN_SPEED	"10.0000"
*MEAS_SCAN_SPEED_UNIT	"deg/min"
*MEAS_SCAN_START	"10.0000"
*MEAS_SCAN_START_TIME "04/26/2024 13:32:07"
*MEAS_SCAN_STEP	"0.0100"
*MEAS_SCAN_STOP	"100.0000"
*MEAS_SCAN_UNEQUALY_SPACED	"False"
*MEAS_SCAN_UNIT_X	"deg"
*MEAS_SCAN_UNIT_Y	"cps"
#Intensity_unit=cps
#Attenuator_coefficient=1.0000
10.0000	2568.3400
10.0100	2594.9925
10.0200	2683.4075
10.0300	2528.3750
10.0400	2493.2125
10.0500	2603.0125
10.0600	2778.4325
10.0700	2726.8250
10.0800	2679.6325
10.0900	2803.2275
10.1000	2831.7250
10.1100	2792.6450
10.1200	2581.0200
10.1300	2740.4925
10.1400	2963.5025
10.1500	2930.1825
10.1600	2895.2925
10.1700	2850.0000
10.1800	2839.1075
10.1900	2717.8375
10.2000	2577.4675
10.2100	2695.6275
10.2200	2819.7275
10.2300	2834.7625
10.2400	2666.6450
10.2500	2525.6800
10.2600	2784.8375
10.2700	2788.0200
10.2800	2687.5425
10.2900	2910.3925
10.3000	2997.4525
10.3100	2797.0575
10.3200	2757.8775
10.3300	2672.5000
10.3400	2753.6600
10.3500	2950.7675
10.3600	2770.3850
10.3700	2650.5200
10.3800	2817.6500
10.3900	2664.1925
10.4000	2806.7775
10.4100	2719.6850
10.4200	2954.3250
10.4300	3140.1525
10.4400	2662.5075
10.4500	2637.3625
10.4600	2858.4275
10.4700	2755.7350
10.4800	2640.1325
10.4900	2712.6075
10.5000	2662.6275
10.5100	2635.4300
10.5200	2840.6650
10.5300	2729.3525
10.5400	2683.3325
10.5500	2685.9600
10.5600	2714.0525
10.5700	2702.8400
10.5800	2925.5700
10.5900	2824.3225
10.6000	2719.2275
10.6100	2723.2475
10.6200	2421.5450
10.6300	2677.0300
10.6400	2622.5725
10.6500	2892.5150
10.6600	2811.1650
10.6700	2946.2975
10.6800	2895.0900
10.6900	2833.3325
10.7000	2823.6225
10.7100	2710.8650
10.7200	2840.3950
10.7300	2719.0550
10.7400	2766.6225
10.7500	2971.5275
10.7600	2794.3625
10.7700	2497.6650
10.7800	2494.5175
10.7900	2863.2050
10.8000	2805.1975
10.8100	2648.8600
10.8200	2628.8000
10.8300	2573.4275
10.8400	2689.0700
10.8500	2981.0725
10.8600	2704.4925
10.8700	2532.2325
10.8800	2521.0400
10.8900	2593.1125
10.9000	2729.0150
10.9100	2669.8850
10.9200	2718.8000
10.9300	2756.3575
10.9400	2855.2625
10.9500	2939.6075
10.9600	3031.2550
10.9700	2985.5475
10.9800	2751.2825
10.9900	2517.6850
11.0000	2543.4525
11.0100	2705.0250
11.0200	2786.3275
11.0300	2810.5275
11.0400	2449.0150
11.0500	2455.8275
11.0600	2821.5225
11.0700	2872.0325
11.0800	2416.6675
11.0900	2427.1250
11.1000	2606.6075
11.1100	2717.6050
11.1200	2741.7050
11.1300	2885.1800
11.1400	2915.7500
11.1500	2897.2700
11.1600	2858.1250
11.1700	2988.3500
11.1800	2772.6625
11.1900	2592.1575
11.2000	2756.1275
11.2100	2870.1400
11.2200	2935.9175
11.2300	2955.9775
11.2400	2458.4800
11.2500	2649.4700
11.2600	3245.8100
11.2700	2851.6550
11.2800	2872.6675
11.2900	2673.1750
11.3000	2800.8075
11.3100	2817.4675
11.3200	2834.1250
11.3300	2853.9300
11.3400	2922.4250
11.3500	2706.9500
11.3600	2846.9400
11.3700	2778.7825
11.3800	2689.3450
11.3900	2812.2000
11.4000	2724.0425
11.4100	2886.2550
11.4200	2938.4225
11.4300	2681.1825
11.4400	2651.0775
11.4500	3035.9425
11.4600	2701.3575
11.4700	2363.0900
11.4800	2682.3525
11.4900	3042.5750
11.5000	2861.3225
11.5100	2753.8250
11.5200	3237.5725
11.5300	2932.0400
11.5400	2886.5575
11.5500	2555.0650
11.5600	2687.7175
11.5700	2797.5225
11.5800	2735.7825
11.5900	2806.0525
11.6000	2969.0600
11.6100	3021.5100
11.6200	2709.3475
11.6300	2970.7075
11.6400	3067.3700
11.6500	2615.5400
11.6600	2589.4500
11.6700	2767.7650
11.6800	2798.9150
11.6900	2759.7125
11.7000	2555.8075
11.7100	2735.9375
11.7200	2818.2075
11.7300	2861.0925
11.7400	2682.8325
11.7500	2675.0425
11.7600	2954.8575
11.7700	3111.4025
11.7800	2919.1875
11.7900	2434.2625
11.8000	2470.3250
11.8100	2606.7550
11.8200	2848.6700
11.8300	2790.4050
11.8400	2440.1975
11.8500	2701.6875
11.8600	2765.4225
11.8700	2717.8900
11.8800	2769.4700
11.8900	2880.1850
11.9000	2745.3625
11.9100	2550.3800
11.9200	2568.1550
11.9300	2640.2700
11.9400	2952.5050
11.9500	3054.0350
11.9600	2472.1650
11.9700	2732.9975
11.9800	2714.6900
11.9900	2618.6000
12.0000	2715.4050
12.0100	2654.3125
12.0200	2881.5275
12.0300	2783.9200
12.0400	2814.0875
12.0500	2671.1375
12.0600	2935.5100
12.0700	3065.0750
12.0800	2962.0250
12.0900	2666.9175
12.1000	2691.1275
12.1100	3214.3025
12.1200	3048.6250
12.1300	2945.7825
12.1400	2636.1250
12.1500	2849.5850
12.1600	2813.6600
12.1700	2568.7925
12.1800	2747.9550
12.1900	2565.0575
12.2000	2421.3000
12.2100	2867.4875
12.2200	2948.4275
12.2300	2783.1825
12.2400	2769.3775
12.2500	3082.6550
12.2600	2999.2300
12.2700	2901.4525
12.2800	3099.0900
12.2900	2966.1350
12.3000	2882.8375
12.3100	2800.2750
12.3200	2849.0675
12.3300	2667.5200
12.3400	2850.2800
12.3500	2915.5325
12.3600	2616.7775
12.3700	2650.9700
12.3800	2982.7150
12.3900	2732.8250
12.4000	2483.9200
12.4100	2850.0375
12.4200	2883.4550
12.4300	3049.9150
12.4400	2750.0450
12.4500	2966.5400
12.4600	2999.9650
12.4700	2767.0075
12.4800	2833.2075
12.4900	2982.9825
12.5000	2950.0925
12.5100	2883.5475
12.5200	2883.3325
12.5300	3082.5150
12.5400	3265.8350
12.5500	2885.2425
12.5600	2866.7575
12.5700	2833.5275
12.5800	2800.2100
12.5900	2882.7725
12.6000	3032.2575
12.6100	2867.9375
12.6200	2949.3275
12.6300	2900.4250
12.6400	2883.4825
12.6500	2916.3550
12.6600	2834.1525
12.6700	2635.3875
12.6800	2814.7025
12.6900	2899.0700
12.7000	2900.0000
12.7100	3031.7275
12.7200	3000.4150
12.7300	2901.2925
12.7400	2801.3375
12.7500	2915.0550
12.7600	3064.5275
12.7700	2787.5000
12.7800	2619.1900
12.7900	2747.9200
12.8000	2750.0000
12.8100	2815.5675
12.8200	3046.0500
12.8300	3099.1325
12.8400	2707.1275
12.8500	2994.5200
12.8600	2967.2900
12.8700	2884.9300
12.8800	2752.6125
12.8900	2864.3275
12.9000	2850.3425
12.9100	2703.1425
12.9200	2618.4500
12.9300	3203.5650
12.9400	2825.5800
12.9500	2604.9250
12.9600	2730.2425
12.9700	2733.3325
12.9800	2700.8025
12.9900	2748.7750
13.0000	2750.0000
13.0100	2750.0000
13.0200	2961.0600
13.0300	2917.9825
13.0400	2689.5800
13.0500	2894.1025
13.0600	2867.5900
13.0700	2899.0625
13.0800	2851.4275
13.0900	3060.3800
13.1000	3034.3150
13.1100	2855.4850
13.1200	2946.9625
13.1300	2756.1650
13.1400	2572.4000
13.1500	2598.9425
13.1600	2729.0425
13.1700	2588.2275
13.1800	2680.0250
13.1900	2860.5175
13.2000	2753.9650
13.2100	2653.4450
13.2200	2762.5950
13.2300	3056.0625
13.2400	3050.5975
13.2500	3162.4375
13.2600	3038.2275
13.2700	2712.3875
13.2800	3133.0725
13.2900	3262.2250
13.3000	2817.9775
13.3100	2767.9650
13.3200	3070.8450
13.3300	3019.3250
13.3400	3096.6375
13.3500	2956.1200
13.3600	2806.1875
13.3700	2608.3425
13.3800	2871.3850
13.3900	3074.8100
13.4000	2907.8975
13.4100	2900.0000
13.4200	3123.0675
13.4300	3149.2600
13.4400	3054.4900
13.4500	2763.6100
13.4600	2877.2250
13.4700	2867.4375
13.4800	2882.5550
13.4900	2883.3325
13.5000	2994.4400
13.5100	2920.6750
13.5200	2805.6675
13.5300	2625.6550
13.5400	2775.0850
13.5500	2767.5000
13.5600	2845.8000
13.5700	2660.1725
13.5800	2760.6775
13.5900	2719.2550
13.6000	2621.8925
13.6100	2758.7600
13.6200	2608.8600
13.6300	2789.2750
13.6400	2721.1750
13.6500	2842.7275
13.6600	2881.5000
13.6700	2773.1375
13.6800	2451.9775
13.6900	2700.6875
13.7000	2983.8900
13.7100	2795.7525
13.7200	2830.4450
13.7300	3021.6850
13.7400	2970.5800
13.7500	3045.0700
13.7600	2924.6175
13.7700	2854.0075
13.7800	3037.8875
13.7900	2924.8025
13.8000	2760.2475
13.8100	2734.3650
13.8200	3155.2450
13.8300	3042.7650
13.8400	3033.3325
13.8500	2814.8900
13.8600	2846.7850
13.8700	2834.4125
13.8800	2677.5350
13.8900	2915.8200
13.9000	2871.0750
13.9100	2788.8825
13.9200	2767.7850
13.9300	2797.7500
13.9400	2924.2675
13.9500	2902.2825
13.9600	2775.8575
13.9700	3061.3550
13.9800	2819.7950
13.9900	2536.5950
14.0000	2563.1275
14.0100	2891.7225
14.0200	3009.4925
14.0300	2614.6225
14.0400	2737.8875
14.0500	2981.7150
14.0600	2799.2825
14.0700	2613.5825
14.0800	3016.4525
14.0900	2911.2525
14.1000	2699.6900
14.1100	2744.9350
14.1200	2734.6075
14.1300	2841.0275
14.1400	3034.5275
14.1500	3003.8925
14.1600	2815.6625
14.1700	2800.0000
14.1800	2968.8050
14.1900	2921.9825
14.2000	2840.0150
14.2100	2634.1450
14.2200	2861.6975
14.2300	2745.5750
14.2400	3131.1000
14.2500	2769.1050
14.2600	2779.1825
14.2700	2768.0575
14.2800	2781.9350
14.2900	3012.2225
14.3000	3170.5950
14.3100	3046.1425
14.3200	2972.3900
14.3300	2799.1600
14.3400	2889.8725
14.3500	3128.1800
14.3600	2861.1225
14.3700	2954.9025
14.3800	2921.1025
14.3900	2855.9450
14.4000	2925.8625
14.4100	2751.3600
14.4200	2748.4900
14.4300	2886.3375
14.4400	2824.2950
14.4500	2922.5975
14.4600	2540.0850
14.4700	2651.1700
14.4800	2863.0850
14.4900	2671.9175
14.5000	2876.3975
14.5100	2975.4250
14.5200	2817.4825
14.5300	2679.4450
14.5400	2937.7725
14.5500	2740.8650
14.5600	2731.7125
14.5700	2733.3325
14.5800	2778.4225
14.5900	2663.1600
14.6000	2710.0550
14.6100	2746.6775
14.6200	3109.9425
14.6300	2835.2175
14.6400	2515.3475
14.6500	2722.9125
14.6600	2735.0350
14.6700	2763.2500
14.6800	2766.6675
14.6900	2721.8425
14.7000	2895.8725
14.7100	2722.6325
14.7200	2953.6000
14.7300	3087.7025
14.7400	3070.1975
14.7500	2783.6875
14.7600	2764.8850
14.7700	2632.7675
14.7800	2676.1450
14.7900	2534.7175
14.8000	2754.3250
14.8100	2887.2525
14.8200	2692.2750
14.8300	2770.4725
14.8400	2783.3325
14.8500	2650.0125
14.8600	2662.9450
14.8700	2681.4650
14.8800	2565.0200
14.8900	2461.3125
14.9000	2775.0100
14.9100	2683.7800
14.9200	2637.1525
14.9300	2707.0775
14.9400	2805.1125
14.9500	2713.5375
14.9600	2979.7700
14.9700	2840.0675
14.9800	2625.4550
14.9900	2511.7975
15.0000	2485.3075
15.0100	2498.0175
15.0200	2734.8200
15.0300	2796.0025
15.0400	3034.5600
15.0500	3037.3625
15.0600	2857.6075
15.0700	2847.9700
15.0800	2981.6475
15.0900	2736.8475
15.1000	2758.4450
15.1100	2883.4925
15.1200	2827.0250
15.1300	2875.0150
15.1400	2912.4900
15.1500	2887.5250
15.1600	2810.5200
15.1700	2916.4350
15.1800	2802.4150
15.1900	2899.6400
15.2000	2742.3050
15.2100	2673.1000
15.2200	2869.8600
15.2300	2856.4825
15.2400	2792.0100
15.2500	2783.3325
15.2600	2754.3700
15.2700	2619.7425
15.2800	2816.9725
15.2900	2907.8275
15.3000	2714.3875
15.3100	2741.0950
15.3200	2735.5675
15.3300	2747.7575
15.3400	2605.8425
15.3500	2612.1475
15.3600	2659.8650
15.3700	2666.6675
15.3800	2911.1800
15.3900	2849.3750
15.4000	2761.5000
15.4100	2491.5475
15.4200	2579.1525
15.4300	2585.6575
15.4400	2468.6625
15.4500	2851.1200
15.4600	2930.9850
15.4700	2818.8600
15.4800	2628.3875
15.4900	2471.3650
15.5000	2592.8450
15.5100	2630.9425
15.5200	2890.1600
15.5300	2719.4350
15.5400	2740.3400
15.5500	2806.9725
15.5600	3186.7825
15.5700	3207.3200
15.5800	2901.4075
15.5900	2608.4225
15.6000	2580.8700
15.6100	2625.9150
15.6200	2718.4475
15.6300	2818.3975
15.6400	2875.8400
15.6500	2727.5625
15.6600	2572.6250
15.6700	2705.5875
15.6800	2818.1500
15.6900	2748.5675
15.7000	2634.4975
15.7100	2517.8875
15.7200	2514.1025
15.7300	2657.6125
15.7400	2824.1975
15.7500	2864.0775
15.7600	2768.1775
15.7700	2764.0625
15.7800	2429.3900
15.7900	2633.5200
15.8000	2837.7350
15.8100	2908.7525
15.8200	2748.4275
15.8300	2772.7125
15.8400	2783.3325
15.8500	2447.4525
15.8600	2481.2400
15.8700	2472.0425
15.8800	2396.8150
15.8900	2816.1475
15.9000	2830.2325
15.9100	2649.3250
15.9200	2672.4125
15.9300	2460.4775
15.9400	2583.7075
15.9500	2811.4300
15.9600	2933.4200
15.9700	2727.6800
15.9800	2738.8800
15.9900	2597.3375
16.0000	2622.1475
16.0100	2564.0250
16.0200	2536.1475
16.0300	2741.0075
16.0400	2852.5150
16.0500	2742.2125
16.0600	2523.1900
16.0700	2621.4475
16.0800	2732.8175
16.0900	2584.4650
16.1000	2522.4275
16.1100	2558.0000
16.1200	2428.9725
16.1300	2565.1325
16.1400	2792.5375
16.1500	2558.4475
16.1600	2719.7750
16.1700	2725.4850
16.1800	2812.7000
16.1900	2613.9625
16.2000	2443.3450
16.2100	2580.9925
16.2200	2698.7800
16.2300	2785.0525
16.2400	2841.0050
16.2500	2604.1175
16.2600	2577.3025
16.2700	2515.1175
16.2800	2500.0000
16.2900	2459.1200
16.3000	2368.2925
16.3100	2254.7325
16.3200	2532.5600
16.3300	2776.7050
16.3400	2517.8125
16.3500	2680.7900
16.3600	2692.6300
16.3700	2466.3900
16.3800	2701.2275
16.3900	2807.2925
16.4000	2979.0700
16.4100	2854.3650
16.4200	2789.6325
16.4300	2796.8425
16.4400	2611.0050
16.4500	2553.1750
16.4600	2630.8975
16.4700	2946.4350
16.4800	2774.2825
16.4900	2635.9225
16.5000	2657.0125
16.5100	2747.3075
16.5200	2793.5300
16.5300	2598.6500
16.5400	2389.0225
16.5500	2484.0625
16.5600	2623.8500
16.5700	2489.3275
16.5800	2476.7625
16.5900	2322.8650
16.6000	2537.2475
16.6100	2613.3550
16.6200	2376.4250
16.6300	2730.1550
16.6400	2793.3450
16.6500	2570.1925
16.6600	2476.7275
16.6700	2453.3625
16.6800	2582.9575
16.6900	2590.0925
16.7000	2530.2200
16.7100	2662.6375
16.7200	2898.9225
16.7300	2923.4950
16.7400	2744.4900
16.7500	2832.3600
16.7600	2734.3925
16.7700	2620.6875
16.7800	2520.7375
16.7900	2592.4125
16.8000	2814.5625
16.8100	2879.8500
16.8200	2804.2775
16.8300	2598.9900
16.8400	2602.6350
16.8500	2879.6725
16.8600	2621.4575
16.8700	2493.9350
16.8800	2417.7100
16.8900	2400.0000
16.9000	2622.8250
16.9100	2644.0375
16.9200	2463.1600
16.9300	2390.5025
16.9400	2265.6750
16.9500	2324.7850
16.9600	2284.7200
16.9700	2579.8000
16.9800	2823.1300
16.9900	2788.4875
17.0000	2675.5175
17.0100	2571.9225
17.0200	2680.0425
17.0300	2547.7250
17.0400	2616.8825
17.0500	2520.2175
17.0600	2223.9400
17.0700	2292.5725
17.0800	2333.3325
17.0900	2398.0525
17.1000	2429.6025
17.1100	2485.0400
17.1200	2590.4250
17.1300	2487.5725
17.1400	2398.3975
17.1500	2447.7925
17.1600	2518.2000
17.1700	2584.8325
17.1800	2419.8750
17.1900	2340.9525
17.2000	2513.2150
17.2100	2810.6275
17.2200	2665.2000
17.2300	2484.5950
17.2400	2411.5575
17.2500	2451.2225
17.2600	2441.0725
17.2700	2369.3925
17.2800	2286.1025
17.2900	2407.1450
17.3000	2475.5250
17.3100	2330.2925
17.3200	2474.5050
17.3300	2686.1650
17.3400	2618.7875
17.3500	2634.2075
17.3600	2688.1300
17.3700	2496.7800
17.3800	2407.9475
17.3900	2640.9925
17.4000	2387.1125
17.4100	2258.0000
17.4200	2515.8125
17.4300	2574.7025
17.4400	2402.3425
17.4500	2312.1050
17.4600	2135.9025
17.4700	2335.6175
17.4800	2567.9325
17.4900	2578.8775
17.5000	2705.1350
17.5100	2661.9450
17.5200	2482.4875
17.5300	2533.8275
17.5400	2541.5600
17.5500	2458.0675
17.5600	2483.4750
17.5700	2550.1075
17.5800	2504.0750
17.5900	2483.3325
17.6000	2370.8275
17.6100	2295.8575
17.6200	2270.8500
17.6300	2179.3450
17.6400	2336.9850
17.6500	2375.0875
17.6600	2503.5950
17.6700	2450.4850
17.6800	2342.0825
17.6900	2589.9450
17.7000	2447.4850
17.7100	2391.4750
17.7200	2375.2100
17.7300	2453.3725
17.7400	2359.5550
17.7500	2440.3575
17.7600	2396.8100
17.7700	2391.3700
17.7800	2523.4275
17.7900	2467.9950
17.8000	2544.2600
17.8100	2534.0675
17.8200	2664.3575
17.8300	2692.0700
17.8400	2732.4925
17.8500	2750.0000
17.8600	2565.9150
17.8700	2696.2175
17.8800	2827.9400
17.8900	2764.2775
17.9000	2635.4375
17.9100	2428.8050
17.9200	2403.3250
17.9300	2380.0350
17.9400	2513.0875
17.9500	2566.6675
17.9600	2457.0100
17.9700	2307.0875
17.9800	2449.1650
17.9900	2540.9825
18.0000	2562.1500
18.0100	2615.2275
18.0200	2463.4975
18.0300	2448.4900
18.0400	2599.9150
18.0500	2686.3150
18.0600	2554.8500
18.0700	2367.0450
18.0800	2642.7750
18.0900	2537.3525
18.1000	2642.9650
18.1100	2620.2550
18.1200	2414.7375
18.1300	2337.9675
18.1400	2333.3325
18.1500	2513.5725
18.1600	2595.3400
18.1700	2432.0250
18.1800	2474.5700
18.1900	2552.6075
18.2000	2494.8375
18.2100	2442.7400
18.2200	2325.7475
18.2300	2366.9475
18.2400	2388.0650
18.2500	2526.4600
18.2600	2511.8225
18.2700	2316.6025
18.2800	2190.4975
18.2900	2214.2325
18.3000	2387.8075
18.3100	2556.8650
18.3200	2493.2150
18.3300	2343.2950
18.3400	2264.4600
18.3500	2474.9250
18.3600	2531.1800
18.3700	2563.9475
18.3800	2595.1450
18.3900	2588.1975
18.4000	2441.8100
18.4100	2418.6875
18.4200	2362.6800
18.4300	2462.7675
18.4400	2387.3300
18.4500	2227.5925
18.4600	2382.9125
18.4700	2560.5150
18.4800	2494.5000
18.4900	2414.8600
18.5000	2493.6325
18.5100	2381.2950
18.5200	2246.5500
18.5300	2298.4075
18.5400	2263.3225
18.5500	2361.5875
18.5600	2172.0075
18.5700	2252.9300
18.5800	2321.7000
18.5900	2456.1500
18.6000	2505.0525
18.6100	2511.6050
18.6200	2586.2475
18.6300	2616.6675
18.6400	2581.9300
18.6500	2381.5500
18.6600	2392.4875
18.6700	2525.7475
18.6800	2474.3250
18.6900	2317.9950
18.7000	2139.8925
18.7100	2186.9750
18.7200	2348.4025
18.7300	2434.4925
18.7400	2472.9775
18.7500	2322.6150
18.7600	2318.8250
18.7700	2384.3850
18.7800	2285.4700
18.7900	2382.1050
18.8000	2518.6100
18.8100	2538.5750
18.8200	2304.9950
18.8300	2257.0400
18.8400	2180.7425
18.8500	2178.8925
18.8600	2427.6150
18.8700	2453.7300
18.8800	2371.2150
18.8900	2304.5850
18.9000	2453.5050
18.9100	2646.6900
18.9200	2666.0200
18.9300	2355.7425
18.9400	2397.6050
18.9500	2392.9375
18.9600	2485.4850
18.9700	2572.5625
18.9800	2402.9750
18.9900	2294.1400
19.0000	2294.5875
19.0100	2344.9800
19.0200	2456.5575
19.0300	2309.1375
19.0400	2194.2300
19.0500	2317.8425
19.0600	2484.1325
19.0700	2410.2325
19.0800	2305.2725
19.0900	2328.0250
19.1000	2305.3450
19.1100	2205.2500
19.1200	2166.6675
19.1300	2222.3500
19.1400	2428.0400
19.1500	2338.7725
19.1600	2383.3125
19.1700	2394.4975
19.1800	2333.3925
19.1900	2372.0775
19.2000	2355.7075
19.2100	2322.2700
19.2200	2261.3925
19.2300	2354.8375
19.2400	2361.4825
19.2500	2333.3325
19.2600	2454.5350
19.2700	2439.6000
19.2800	2411.0000
19.2900	2427.6575
19.3000	2389.4050
19.3100	2465.4225
19.3200	2330.2825
19.3300	2134.7400
19.3400	2170.8975
19.3500	2369.7775
19.3600	2395.3625
19.3700	2268.4025
19.3800	2282.1225
19.3900	2469.2675
19.4000	2277.7275
19.4100	2318.3225
19.4200	2394.9225
19.4300	2361.6075
19.4400	2241.4575
19.4500	2161.6425
19.4600	2139.1650
19.4700	2263.2575
19.4800	2311.6975
19.4900	2213.5300
19.5000	2242.2625
19.5100	2402.0275
19.5200	2326.5100
19.5300	2142.2800
19.5400	2190.9625
19.5500	2271.5075
19.5600	2165.1425
19.5700	2142.9425
19.5800	2123.7625
19.5900	2153.5850
19.6000	2333.2450
19.6100	2662.7400
19.6200	2575.5175
19.6300	2385.9175
19.6400	2307.3150
19.6500	2304.6575
19.6600	2327.3200
19.6700	2429.1275
19.6800	2270.6400
19.6900	2235.0025
19.7000	2442.5775
19.7100	2321.1900
19.7200	2284.7825
19.7300	2312.1550
19.7400	2289.4200
19.7500	2346.7550
19.7600	2235.4775
19.7700	2223.8650
19.7800	2277.2100
19.7900	2262.2650
19.8000	2365.7675
19.8100	2265.0900
19.8200	2366.2800
19.8300	2388.8625
19.8400	2270.4075
19.8500	2243.8125
19.8600	2302.3450
19.8700	2301.9525
19.8800	2366.9400
19.8900	2500.2000
19.9000	2518.7025
19.9100	2500.0000
19.9200	2541.6550
19.9300	2421.0025
19.9400	2520.4500
19.9500	2737.1950
19.9600	2582.0825
19.9700	2615.8850
19.9800	2654.5150
19.9900	2523.5225
20.0000	2549.3875
20.0100	2517.3525
20.0200	2260.2350
20.0300	2257.0825
20.0400	2209.6975
20.0500	2205.3900
20.0600	2280.8550
20.0700	2228.0725
20.0800	2265.4625
20.0900	2501.2900
20.1000	2462.9525
20.1100	2376.9050
20.1200	2311.7300
20.1300	2246.2275
20.1400	2274.1750
20.1500	2259.1950
20.1600	2284.2925
20.1700	2387.9450
20.1800	2402.8125
20.1900	2383.3325
20.2000	2383.3325
20.2100	2616.6850
20.2200	2645.0300
20.2300	2475.5225
20.2400	2538.0825
20.2500	2485.2550
20.2600	2400.0000
20.2700	2480.7200
20.2800	2593.8175
20.2900	2542.6900
20.3000	2422.9600
20.3100	2403.4400
20.3200	2396.5800
20.3300	2443.5400
20.3400	2373.0575
20.3500	2219.8750
20.3600	2286.7450
20.3700	2386.6600
20.3800	2320.0975
20.3900	2176.8600
20.4000	2296.1125
20.4100	2327.0275
20.4200	2256.7150
20.4300	2498.5325
20.4400	2716.3275
20.4500	2591.2375
20.4600	2384.2000
20.4700	2187.9125
20.4800	2169.2625
20.4900	2256.2075
20.5000	2431.4750
20.5100	2572.8000
20.5200	2491.5675
20.5300	2495.4525
20.5400	2648.3875
20.5500	2411.9525
20.5600	2101.7975
20.5700	2219.7400
20.5800	2320.5950
20.5900	2309.7925
20.6000	2306.8850
20.6100	2387.9625
20.6200	2479.2925
20.6300	2373.1875
20.6400	2322.3150
20.6500	2418.1525
20.6600	2233.2250
20.6700	2105.5375
20.6800	2172.1650
20.6900	2384.2750
20.7000	2603.8700
20.7100	2560.1875
20.7200	2415.6375
20.7300	2289.3750
20.7400	2262.2900
20.7500	2254.4050
20.7600	2242.9675
20.7700	2326.9900
20.7800	2364.1050
20.7900	2350.0000
20.8000	2244.4475
20.8100	2176.2525
20.8200	2183.3325
20.8300	2384.2550
20.8400	2399.5175
20.8500	2385.9400
20.8600	2488.1575
20.8700	2488.0775
20.8800	2342.8975
20.8900	2307.0675
20.9000	2273.9850
20.9100	2349.5625
20.9200	2478.4500
20.9300	2443.1575
20.9400	2485.1800
20.9500	2587.8200
20.9600	2578.8850
20.9700	2332.9675
20.9800	2166.6675
20.9900	2420.9375
21.0000	2419.0975
21.0100	2294.8625
21.0200	2232.1625
21.0300	2269.8450
21.0400	2218.8150
21.0500	2135.3875
21.0600	2271.5700
21.0700	2291.9300
21.0800	2112.0075
21.0900	1960.7275
21.1000	1981.8650
21.1100	1940.2875
21.1200	2089.7500
21.1300	2424.5225
21.1400	2327.3700
21.1500	2066.5975
21.1600	2046.2875
21.1700	2120.3250
21.1800	2140.7625
21.1900	2133.3325
21.2000	2160.9925
21.2100	2303.0675
21.2200	2344.7950
21.2300	2208.0850
21.2400	2133.3325
21.2500	2298.4400
21.2600	2350.8650
21.2700	2155.1825
21.2800	2168.8750
21.2900	2303.2050
21.3000	2296.8325
21.3100	2157.2775
21.3200	2185.0500
21.3300	2301.5275
21.3400	2353.0175
21.3500	2410.5675
21.3600	2415.1950
21.3700	2481.5325
21.3800	2577.1500
21.3900	2410.1550
21.4000	2240.9700
21.4100	2323.5475
21.4200	2291.8575
21.4300	2209.0025
21.4400	2333.5750
21.4500	2280.6150
21.4600	2203.8450
21.4700	2375.5025
21.4800	2411.6925
21.4900	2242.6525
21.5000	2042.7675
21.5100	2012.4850
21.5200	2155.8375
21.5300	2304.5950
21.5400	2348.8700
21.5500	2360.0000
21.5600	2223.5075
21.5700	2127.6825
21.5800	2148.9450
21.5900	2133.3325
21.6000	2177.5400
21.6100	2128.3500
21.6200	2032.3550
21.6300	2095.9825
21.6400	2281.1100
21.6500	2321.7775
21.6600	2284.2350
21.6700	2335.1000
21.6800	2357.9025
21.6900	2341.2450
21.7000	2237.1250
21.7100	2324.7350
21.7200	2448.4250
21.7300	2224.8775
21.7400	2250.2900
21.7500	2285.4550
21.7600	2158.6900
21.7700	2296.8625
21.7800	2321.2950
21.7900	2155.3875
21.8000	2109.2875
21.8100	2262.9575
21.8200	2314.2775
21.8300	2172.3975
21.8400	2065.5475
21.8500	2110.7650
21.8600	2166.1450
21.8700	2115.6625
21.8800	2100.4825
21.8900	2159.4925
21.9000	2097.3300
21.9100	2170.9275
21.9200	2299.1850
21.9300	2232.5575
21.9400	2251.1075
21.9500	2197.9025
21.9600	2201.9825
21.9700	2333.9575
21.9800	2273.3925
21.9900	2149.4525
22.0000	2209.7325
22.0100	2240.8425
22.0200	2098.9200
22.0300	1991.3700
22.0400	1949.8225
22.0500	2034.2850
22.0600	2057.7050
22.0700	2109.2375
22.0800	2216.5650
22.0900	2107.8800
22.1000	2091.9500
22.1100	2166.6675
22.1200	2200.0500
22.1300	2350.0400
22.1400	2366.7475
22.1500	2191.8125
22.1600	2149.8975
22.1700	2199.9300
22.1800	2266.3975
22.1900	2225.6000
22.2000	2141.6025
22.2100	2216.0775
22.2200	2217.3325
22.2300	2100.5575
22.2400	1926.5350
22.2500	1824.6650
22.2600	1948.5425
22.2700	2000.7875
22.2800	1982.7700
22.2900	2049.4000
22.3000	1977.0775
22.3100	1948.3050
22.3200	2139.3400
22.3300	2274.4350
22.3400	2251.1900
22.3500	2143.1225
22.3600	2083.3325
22.3700	2213.0350
22.3800	2228.5500
22.3900	1946.3450
22.4000	1775.2550
22.4100	1936.0925
22.4200	2076.3750
22.4300	1985.0400
22.4400	2013.7250
22.4500	2116.0600
22.4600	2165.4125
22.4700	2183.9800
22.4800	2062.6575
22.4900	2005.9375
22.5000	2082.6300
22.5100	2004.3375
22.5200	2099.0550
22.5300	2308.7150
22.5400	2077.5950
22.5500	1896.8000
22.5600	2030.0575
22.5700	2005.0300
22.5800	1852.5725
22.5900	1752.6300
22.6000	1818.2800
22.6100	2154.7675
22.6200	2383.3325
22.6300	2210.4925
22.6400	1953.8925
22.6500	1875.4950
22.6600	1976.2525
22.6700	2084.3650
22.6800	2082.2825
22.6900	2154.5900
22.7000	2146.5650
22.7100	1988.8725
22.7200	1845.6125
22.7300	1860.9350
22.7400	1903.4975
22.7500	1888.7050
22.7600	1971.9900
22.7700	2008.9450
22.7800	2069.4075
22.7900	2065.2750
22.8000	1912.8175
22.8100	1949.8775
22.8200	2074.3400
22.8300	2022.0250
22.8400	1965.3075
22.8500	2082.7100
22.8600	2192.3650
22.8700	2160.4575
22.8800	2133.3325
22.8900	2095.3050
22.9000	2034.8075
22.9100	2031.8400
22.9200	1974.2325
22.9300	1837.9300
22.9400	1806.0050
22.9500	1946.5500
22.9600	2105.9475
22.9700	2088.1625
22.9800	2093.4825
22.9900	2099.0850
23.0000	2091.6600
23.0100	2063.4975
23.0200	2021.3875
23.0300	2097.7075
23.0400	2010.9525
23.0500	2028.0400
23.0600	2061.0100
23.0700	2048.1975
23.0800	1985.0250
23.0900	1942.6325
23.1000	1994.4600
23.1100	1892.7375
23.1200	1881.2150
23.1300	1843.2350
23.1400	1755.0325
23.1500	1954.9175
23.1600	2059.3225
23.1700	2035.3300
23.1800	2060.6175
23.1900	2058.1425
23.2000	2034.4725
23.2100	2063.5200
23.2200	2104.1025
23.2300	2049.3025
23.2400	1855.1350
23.2500	1847.0475
23.2600	1857.9800
23.2700	1868.1925
23.2800	1819.4750
23.2900	1931.6325
23.3000	1980.6225
23.3100	1940.5325
23.3200	1935.6225
23.3300	1916.6675
23.3400	1966.8550
23.3500	1954.5700
23.3600	1799.9475
23.3700	1797.6000
23.3800	1926.1200
23.3900	2040.3050
23.4000	2024.2150
23.4100	1914.2050
23.4200	1784.3975
23.4300	1746.2300
23.4400	2016.1750
23.4500	2104.5225
23.4600	2069.8525
23.4700	1969.2450
23.4800	1921.8650
23.4900	1876.3100
23.5000	1852.6375
23.5100	1847.3425
23.5200	1810.7075
23.5300	1747.3050
23.5400	1829.4475
23.5500	1867.9050
23.5600	1848.6925
23.5700	1916.6675
23.5800	1930.5400
23.5900	1963.8550
23.6000	1941.8300
23.6100	1897.1475
23.6200	1916.6675
23.6300	1992.4350
23.6400	2134.3900
23.6500	2128.3850
23.6600	1940.2600
23.6700	1660.0525
23.6800	1579.0825
23.6900	1771.3025
23.7000	1890.9175
23.7100	1990.8600
23.7200	2050.0000
23.7300	1961.7225
23.7400	1812.9900
23.7500	1776.5625
23.7600	1827.5175
23.7700	1869.4050
23.7800	1826.9675
23.7900	1839.7375
23.8000	1773.1100
23.8100	1639.3575
23.8200	1553.6225
23.8300	1666.7975
23.8400	1709.9825
23.8500	1806.7750
23.8600	1966.6675
23.8700	1920.0900
23.8800	1949.6625
23.8900	2060.1925
23.9000	2000.0000
23.9100	1953.6950
23.9200	1810.6775
23.9300	1719.7850
23.9400	1750.0000
23.9500	1736.8475
23.9600	1828.2900
23.9700	2000.0000
23.9800	1836.3375
23.9900	1596.4075
24.0000	1805.9475
24.0100	2021.7950
24.0200	1847.9400
24.0300	1773.1650
24.0400	1828.7475
24.0500	1841.6975
24.0600	1847.0250
24.0700	1980.6250
24.0800	1885.5125
24.0900	1738.2600
24.1000	1660.2375
24.1100	1650.0000
24.1200	1726.9150
24.1300	1818.0000
24.1400	1766.6675
24.1500	1849.6100
24.1600	1957.8525
24.1700	1986.6325
24.1800	2004.7375
24.1900	1818.2950
24.2000	1741.3425
24.2100	1725.2850
24.2200	1735.1075
24.2300	1708.5400
24.2400	1794.0450
24.2500	1860.3850
24.2600	1837.4550
24.2700	1816.6675
24.2800	1766.6425
24.2900	1689.5775
24.3000	1768.5675
24.3100	1877.1100
24.3200	1872.8800
24.3300	1945.3725
24.3400	2019.0300
24.3500	1849.1650
24.3600	1637.6500
24.3700	1635.1600
24.3800	1666.6675
24.3900	1623.6525
24.4000	1617.4875
24.4100	1831.3400
24.4200	1908.2650
24.4300	1676.7300
24.4400	1623.1525
24.4500	1816.9475
24.4600	1933.3325
24.4700	1854.4675
24.4800	1728.7800
24.4900	1786.2825
24.5000	1831.8875
24.5100	1787.9450
24.5200	1802.7725
24.5300	1848.6425
24.5400	1750.6900
24.5500	1609.3825
24.5600	1620.4700
24.5700	1704.7300
24.5800	1629.7075
24.5900	1557.1275
24.6000	1600.0000
24.6100	1623.7150
24.6200	1690.3425
24.6300	1727.4250
24.6400	1651.7725
24.6500	1639.3475
24.6600	1809.8125
24.6700	1725.5750
24.6800	1632.4200
24.6900	1582.4500
24.7000	1596.7250
24.7100	1712.4875
24.7200	1696.8150
24.7300	1607.3450
24.7400	1689.1350
24.7500	1705.7925
24.7600	1693.5400
24.7700	1661.5425
24.7800	1677.5725
24.7900	1655.1625
24.8000	1650.5600
24.8100	1700.5300
24.8200	1716.1650
24.8300	1706.1850
24.8400	1721.4850
24.8500	1672.3600
24.8600	1751.5300
24.8700	1826.6000
24.8800	1744.9850
24.8900	1777.3850
24.9000	1750.2650
24.9100	1710.0925
24.9200	1696.0200
24.9300	1893.8575
24.9400	1794.5425
24.9500	1794.2875
24.9600	1744.4150
24.9700	1694.3100
24.9800	1705.7050
24.9900	1877.7775
25.0000	1800.1250
25.0100	1705.4150
25.0200	1733.6050
25.0300	1699.5200
25.0400	1838.8400
25.0500	1740.0825
25.0600	1533.1250
25.0700	1632.3800
25.0800	1761.2000
25.0900	1766.3700
25.1000	1778.2125
25.1100	1684.4025
25.1200	1648.4550
25.1300	1810.4175
25.1400	1790.9675
25.1500	1644.1275
25.1600	1612.7925
25.1700	1478.4900
25.1800	1497.7450
25.1900	1649.4075
25.2000	1651.2450
25.2100	1610.0225
25.2200	1650.6825
25.2300	1595.3925
25.2400	1507.5325
25.2500	1421.9650
25.2600	1454.4875
25.2700	1531.6725
25.2800	1673.7650
25.2900	1817.5550
25.3000	1725.5925
25.3100	1673.3500
25.3200	1791.4975
25.3300	1689.5600
25.3400	1692.7150
25.3500	1718.8000
25.3600	1696.7100
25.3700	1717.1200
25.3800	1486.8025
25.3900	1445.2575
25.4000	1686.3425
25.4100	1865.2625
25.4200	1785.9150
25.4300	1871.7875
25.4400	1862.8900
25.4500	1755.4550
25.4600	1637.0300
25.4700	1683.3325
25.4800	1693.4750
25.4900	1696.4200
25.5000	1629.7950
25.5100	1603.5000
25.5200	1725.4775
25.5300	1814.6275
25.5400	1626.6900
25.5500	1700.0200
25.5600	1731.8000
25.5700	1543.2975
25.5800	1581.5850
25.5900	1631.5550
25.6000	1656.7625
25.6100	1623.4475
25.6200	1580.2675
25.6300	1498.8725
25.6400	1475.6225
25.6500	1582.3450
25.6600	1460.8550
25.6700	1410.6175
25.6800	1536.1600
25.6900	1505.5175
25.7000	1345.7875
25.7100	1474.7925
25.7200	1631.1675
25.7300	1632.9000
25.7400	1583.6975
25.7500	1671.4700
25.7600	1692.9225
25.7700	1687.9600
25.7800	1607.1175
25.7900	1611.9200
25.8000	1688.0875
25.8100	1681.0225
25.8200	1657.0075
25.8300	1721.3925
25.8400	1690.9000
25.8500	1573.9225
25.8600	1540.6100
25.8700	1493.2400
25.8800	1470.7350
25.8900	1603.9900
25.9000	1686.0325
25.9100	1589.6075
25.9200	1470.4175
25.9300	1589.7950
25.9400	1617.6900
25.9500	1551.7575
25.9600	1622.9800
25.9700	1674.1600
25.9800	1617.9675
25.9900	1565.2975
26.0000	1631.7750
26.0100	1560.6000
26.0200	1536.2925
26.0300	1642.3875
26.0400	1693.7675
26.0500	1712.5850
26.0600	1571.1625
26.0700	1605.7675
26.0800	1639.8050
26.0900	1580.0675
26.1000	1638.9525
26.1100	1726.6825
26.1200	1786.6875
26.1300	1674.7350
26.1400	1444.5800
26.1500	1427.4075
26.1600	1563.1925
26.1700	1573.6750
26.1800	1504.3775
26.1900	1507.9300
26.2000	1531.2700
26.2100	1623.1875
26.2200	1521.6900
26.2300	1574.6775
26.2400	1558.6375
26.2500	1596.2575
26.2600	1637.6325
26.2700	1632.8475
26.2800	1553.3850
26.2900	1534.9625
26.3000	1720.5575
26.3100	1649.3450
26.3200	1537.2850
26.3300	1529.6025
26.3400	1608.2300
26.3500	1587.5425
26.3600	1620.9950
26.3700	1683.3325
26.3800	1691.6925
26.3900	1662.4675
26.4000	1554.0700
26.4100	1679.3225
26.4200	1554.2475
26.4300	1516.6675
26.4400	1520.7850
26.4500	1566.2100
26.4600	1658.4675
26.4700	1686.5000
26.4800	1821.4425
26.4900	1712.9850
26.5000	1666.2400
26.5100	1700.4675
26.5200	1585.3600
26.5300	1423.6350
26.5400	1545.9800
26.5500	1517.2925
26.5600	1534.6700
26.5700	1746.0100
26.5800	1741.2950
26.5900	1695.2000
26.6000	1470.6275
26.6100	1487.2850
26.6200	1559.1075
26.6300	1808.9600
26.6400	1988.2375
26.6500	1918.7150
26.6600	1797.1625
26.6700	1694.4250
26.6800	1621.0000
26.6900	1800.0000
26.7000	1792.2775
26.7100	1758.9650
26.7200	1729.4925
26.7300	1678.3550
26.7400	1588.2125
26.7500	1682.3650
26.7600	1585.6725
26.7700	1657.5825
26.7800	1653.0825
26.7900	1602.8000
26.8000	1783.3325
26.8100	1745.8175
26.8200	1612.9250
26.8300	1648.5100
26.8400	1827.8325
26.8500	1818.4150
26.8600	1690.7200
26.8700	1822.2575
26.8800	1779.6525
26.8900	1788.6975
26.9000	1866.6675
26.9100	1855.7100
26.9200	1820.3075
26.9300	1840.5975
26.9400	1863.0450
26.9500	1925.8550
26.9600	2120.7500
26.9700	1829.7400
26.9800	1884.7300
26.9900	2083.3200
27.0000	1900.0000
27.0100	1910.6575
27.0200	1942.9150
27.0300	1969.6550
27.0400	2096.2150
27.0500	1882.5100
27.0600	2059.6625
27.0700	2022.8550
27.0800	2073.8850
27.0900	2416.6675
27.1000	2388.9650
27.1100	2317.8625
27.1200	2408.6850
27.1300	2294.6275
27.1400	2490.6275
27.1500	2579.9200
27.1600	2638.1300
27.1700	2994.7075
27.1800	3289.8500
27.1900	3330.9550
27.2000	3740.8050
27.2100	4120.1200
27.2200	4360.4775
27.2300	5010.0000
27.2400	5113.1425
27.2500	5476.0075
27.2600	6062.0175
27.2700	6755.3900
27.2800	7455.8625
27.2900	8723.7950
27.3000	9582.0600
27.3100	10759.4900
27.3200	12219.6675
27.3300	13586.7975
27.3400	15171.3375
27.3500	16368.3100
27.3600	16856.4425
27.3700	16405.5825
27.3800	15949.4450
27.3900	16246.0450
27.4000	15912.2575
27.4100	15283.7400
27.4200	14399.3950
27.4300	13741.0200
27.4400	12479.2575
27.4500	11139.9125
27.4600	10481.9050
27.4700	9244.1000
27.4800	8386.6025
27.4900	7063.2900
27.5000	5933.9325
27.5100	5511.6900
27.5200	5093.1450
27.5300	4180.1250
27.5400	3557.5925
27.5500	3531.7375
27.5600	3482.8300
27.5700	2923.0500
27.5800	2713.4525
27.5900	2298.8200
27.6000	2255.2050
27.6100	2397.8800
27.6200	2200.9425
27.6300	2076.4100
27.6400	2200.0000
27.6500	2159.1950
27.6600	1998.6175
27.6700	2164.4725
27.6800	2213.1400
27.6900	2136.7900
27.7000	2178.9025
27.7100	1876.7000
27.7200	1700.4025
27.7300	1789.0025
27.7400	1822.3175
27.7500	1847.1850
27.7600	1847.3575
27.7700	1922.2575
27.7800	1908.2250
27.7900	1694.4500
27.8000	1680.4925
27.8100	1755.5100
27.8200	1750.3925
27.8300	1580.5975
27.8400	1580.2925
27.8500	1660.8600
27.8600	1727.4875
27.8700	1775.2475
27.8800	1701.1100
27.8900	1565.4375
27.9000	1738.6650
27.9100	1732.1475
27.9200	1579.0975
27.9300	1738.6050
27.9400	1753.5400
27.9500	1680.7175
27.9600	1661.4550
27.9700	1633.3325
27.9800	1656.6025
27.9900	1770.4550
28.0000	1694.8700
28.0100	1630.8900
28.0200	1435.8800
28.0300	1452.5350
28.0400	1474.2425
28.0500	1539.3075
28.0600	1629.0825
28.0700	1421.6575
28.0800	1467.4000
28.0900	1576.5700
28.1000	1635.8000
28.1100	1620.5300
28.1200	1454.8925
28.1300	1495.5125
28.1400	1564.2400
28.1500	1542.7525
28.1600	1516.8400
28.1700	1614.2700
28.1800	1561.8250
28.1900	1349.9650
28.2000	1476.0250
28.2100	1647.4700
28.2200	1712.2200
28.2300	1585.6700
28.2400	1600.0000
28.2500	1616.2125
28.2600	1688.9925
28.2700	1500.5950
28.2800	1406.8575
28.2900	1459.1050
28.3000	1543.8600
28.3100	1732.4600
28.3200	1781.6700
28.3300	1438.8200
28.3400	1377.7975
28.3500	1483.2450
28.3600	1677.9375
28.3700	1528.9400
28.3800	1513.1175
28.3900	1610.8825
28.4000	1692.0000
28.4100	1747.8425
28.4200	1729.0400
28.4300	1712.8200
28.4400	1825.5175
28.4500	1985.1850
28.4600	1868.5875
28.4700	1768.7625
28.4800	1791.6800
28.4900	1876.9950
28.5000	2087.3325
28.5100	2258.0125
28.5200	2447.6600
28.5300	2525.5600
28.5400	2345.9475
28.5500	2328.7675
28.5600	2428.7075
28.5700	2522.6575
28.5800	2560.7075
28.5900	2526.5500
28.6000	2590.1650
28.6100	2502.9675
28.6200	2401.9475
28.6300	2393.4250
28.6400	2220.5200
28.6500	2250.0000
28.6600	2257.6275
28.6700	2297.6975
28.6800	2117.9200
28.6900	1862.9125
28.7000	1818.3975
28.7100	1683.2875
28.7200	1555.5425
28.7300	1622.0450
28.7400	1794.5175
28.7500	1746.3650
28.7600	1698.5950
28.7700	1573.3650
28.7800	1748.7950
28.7900	1624.8825
28.8000	1845.7050
28.8100	1914.8550
28.8200	1625.4025
28.8300	1705.2125
28.8400	1722.3625
28.8500	1515.9650
28.8600	1777.8025
28.8700	1585.0300
28.8800	1598.3125
28.8900	1605.1400
28.9000	1786.6600
28.9100	1651.7475
28.9200	1543.0275
28.9300	1780.0575
28.9400	1723.9575
28.9500	1502.7450
28.9600	1683.3325
28.9700	1683.3325
28.9800	1696.0350
28.9900	1821.4000
29.0000	1857.2600
29.0100	1747.9725
29.0200	1552.7350
29.0300	1425.8950
29.0400	1525.8350
29.0500	1625.7750
29.0600	1721.1900
29.0700	1756.1800
29.0800	1654.4650
29.0900	1688.1750
29.1000	1581.3475
29.1100	1712.9200
29.1200	1498.5525
29.1300	1486.2100
29.1400	1522.3800
29.1500	1579.0800
29.1600	1534.7425
29.1700	1572.3725
29.1800	1813.8900
29.1900	1775.0625
29.2000	1655.9675
29.2100	1360.8675
29.2200	1480.6375
29.2300	1458.0300
29.2400	1567.2700
29.2500	1756.1200
29.2600	1643.8000
29.2700	1753.6825
29.2800	1594.8450
29.2900	1544.8400
29.3000	1693.4825
29.3100	1802.8225
29.3200	1630.8350
29.3300	1601.2375
29.3400	1605.6075
29.3500	1467.8850
29.3600	1491.7950
29.3700	1607.1925
29.3800	1694.0550
29.3900	1614.3100
29.4000	1577.4900
29.4100	1501.1600
29.4200	1514.3675
29.4300	1486.7500
29.4400	1533.3325
29.4500	1533.3325
29.4600	1538.8800
29.4700	1610.0725
29.4800	1514.4875
29.4900	1503.8375
29.5000	1792.5150
29.5100	1685.4525
29.5200	1716.6675
29.5300	1715.6275
29.5400	1702.0600
29.5500	1743.5275
29.5600	1894.9525
29.5700	1807.6700
29.5800	1665.6775
29.5900	1638.2450
29.6000	1451.9400
29.6100	1486.2125
29.6200	1524.7850
29.6300	1385.2125
29.6400	1430.6125
29.6500	1673.1050
29.6600	1781.5125
29.6700	1750.0000
29.6800	1742.8800
29.6900	1614.9075
29.7000	1580.7225
29.7100	1537.6325
29.7200	1615.8175
29.7300	1620.1625
29.7400	1987.5475
29.7500	1754.1000
29.7600	1826.8525
29.7700	1707.2025
29.7800	1839.7250
29.7900	1631.7725
29.8000	1598.4600
29.8100	1568.9475
29.8200	1619.6675
29.8300	1687.0350
29.8400	1766.6675
29.8500	1758.0200
29.8600	1568.7975
29.8700	1623.6725
29.8800	1788.1675
29.8900	1891.1500
29.9000	1683.3325
29.9100	1678.0475
29.9200	1547.3975
29.9300	1482.0525
29.9400	1460.0975
29.9500	1713.5625
29.9600	1634.5550
29.9700	1664.8625
29.9800	1609.5725
29.9900	1424.8050
30.0000	1663.7125
30.0100	2034.2825
30.0200	1581.6800
30.0300	1539.2900
30.0400	1716.6675
30.0500	1715.6225
30.0600	1684.3575
30.0700	1712.6525
30.0800	1586.7750
30.0900	1701.9275
30.1000	1769.4975
30.1100	1867.5900
30.1200	1897.7400
30.1300	1818.8775
30.1400	1899.1350
30.1500	1868.7775
30.1600	1945.8775
30.1700	1786.5500
30.1800	1911.9600
30.1900	1716.2850
30.2000	1697.0200
30.2100	1565.9425
30.2200	1534.3900
30.2300	1584.7025
30.2400	1651.6625
30.2500	1734.9475
30.2600	1817.9175
30.2700	1880.6075
30.2800	1734.2125
30.2900	1784.1825
30.3000	1831.6950
30.3100	1733.5975
30.3200	1750.7600
30.3300	1800.0000
30.3400	1798.6000
30.3500	1702.9025
30.3600	1916.4525
30.3700	1900.0000
30.3800	1901.3550
30.3900	2013.5475
30.4000	1735.4150
30.4100	1935.2975
30.4200	2131.0275
30.4300	1881.6075
30.4400	1684.2700
30.4500	1800.6200
30.4600	1884.1300
30.4700	2000.8325
30.4800	2131.9225
30.4900	1885.1850
30.5000	2249.7775
30.5100	2199.8075
30.5200	2150.3800
30.5300	2266.4450
30.5400	2183.6425
30.5500	2333.1375
30.5600	2200.3800
30.5700	2633.2450
30.5800	2316.7675
30.5900	2466.5300
30.6000	2782.8575
30.6100	2617.0175
30.6200	3098.6975
30.6300	3349.1775
30.6400	3532.6200
30.6500	3334.2300
30.6600	3333.3325
30.6700	3515.6275
30.6800	3649.1650
30.6900	3832.0750
30.7000	3767.1650
30.7100	3948.5225
30.7200	3983.0450
30.7300	3620.0575
30.7400	3847.7025
30.7500	4146.8700
30.7600	4199.4475
30.7700	4364.7275
30.7800	3922.1675
30.7900	4114.1025
30.8000	4248.2125
30.8100	3921.3350
30.8200	3949.5125
30.8300	4048.4800
30.8400	4132.0175
30.8500	4215.3000
30.8600	4085.5975
30.8700	3985.0900
30.8800	3901.5150
30.8900	4243.4325
30.9000	3890.4325
30.9100	4030.3400
30.9200	4474.0850
30.9300	3993.9075
30.9400	3820.2900
30.9500	4256.6150
30.9600	4348.0900
30.9700	4284.9025
30.9800	4315.8625
30.9900	4495.4700
31.0000	4808.6525
31.0100	4832.9025
31.0200	4800.8825
31.0300	5562.1125
31.0400	5097.1750
31.0500	5115.7250
31.0600	5197.5950
31.0700	5685.2650
31.0800	5667.6675
31.0900	5747.4450
31.1000	5620.8325
31.1100	6229.8325
31.1200	6508.0175
31.1300	6774.5250
31.1400	7266.5200
31.1500	7170.6600
31.1600	7198.8400
31.1700	7875.2150
31.1800	8269.5325
31.1900	8122.7650
31.2000	8758.5400
31.2100	8783.3325
31.2200	8735.2525
31.2300	9534.1900
31.2400	10174.9425
31.2500	10839.8950
31.2600	11410.2400
31.2700	11481.2650
31.2800	11994.3000
31.2900	12431.5700
31.3000	12194.8325
31.3100	12916.4825
31.3200	13125.2100
31.3300	13181.0875
31.3400	14456.0025
31.3500	14818.7375
31.3600	15023.9975
31.3700	15049.2125
31.3800	15589.5400
31.3900	16124.1525
31.4000	16657.1700
31.4100	17966.3050
31.4200	19410.4800
31.4300	18913.8350
31.4400	19120.4750
31.4500	19670.5200
31.4600	21105.2875
31.4700	22319.4850
31.4800	23834.1725
31.4900	25429.6375
31.5000	27406.6950
31.5100	29641.6150
31.5200	33164.4500
31.5300	37454.0250
31.5400	41706.2375
31.5500	47366.7975
31.5600	53709.6475
31.5700	61265.2825
31.5800	73141.0000
31.5900	90201.4750
31.6000	110297.8725
31.6100	134510.8850
31.6200	162137.3350
31.6300	190095.8200
31.6400	219951.6400
31.6500	255004.5775
31.6600	292131.0225
31.6700	335250.2000
31.6800	377263.8850
31.6900	414161.2100
31.7000	441794.4650
31.7100	463246.3075
31.7200	477776.6050
31.7300	484601.1175
31.7400	492247.0550
31.7500	498039.0250
31.7600	503980.0625
31.7700	493561.3400
31.7800	465963.4175
31.7900	426043.9250
31.8000	381327.2275
31.8100	333045.1075
31.8200	288828.8250
31.8300	256060.5350
31.8400	227200.6975
31.8500	203452.2575
31.8600	176666.2975
31.8700	149968.2200
31.8800	122393.5100
31.8900	95711.2250
31.9000	75636.4575
31.9100	59337.2950
31.9200	46656.6850
31.9300	38509.3550
31.9400	32859.5850
31.9500	28651.2775
31.9600	25945.6925
31.9700	24005.9275
31.9800	22108.4300
31.9900	20423.2925
32.0000	19459.4425
32.0100	18620.9625
32.0200	18199.5350
32.0300	17618.4700
32.0400	16440.5425
32.0500	15648.9725
32.0600	15735.3150
32.0700	15552.5525
32.0800	14349.4075
32.0900	13656.9225
32.1000	13690.9525
32.1100	12912.2500
32.1200	11909.8425
32.1300	11135.8450
32.1400	10280.4500
32.1500	10018.6825
32.1600	9501.7050
32.1700	9072.7500
32.1800	8264.2425
32.1900	7806.5750
32.2000	7631.1225
32.2100	7436.0575
32.2200	6920.3175
32.2300	6235.3625
32.2400	5776.1150
32.2500	5508.1625
32.2600	5603.3450
32.2700	5436.7650
32.2800	5117.0275
32.2900	4993.5000
32.3000	4758.8975
32.3100	4718.3800
32.3200	4507.4700
32.3300	4304.1375
32.3400	4253.4875
32.3500	4071.0400
32.3600	4362.9725
32.3700	4265.9575
32.3800	4011.8600
32.3900	4132.0725
32.4000	4120.2725
32.4100	3745.3075
32.4200	3729.6900
32.4300	3703.6650
32.4400	3863.0750
32.4500	4016.6700
32.4600	4062.9450
32.4700	4096.2575
32.4800	3567.7125
32.4900	3381.7925
32.5000	3514.3275
32.5100	3489.0650
32.5200	3793.0100
32.5300	3789.1225
32.5400	3650.7900
32.5500	3692.2025
32.5600	3361.7300
32.5700	3213.7850
32.5800	3390.9400
32.5900	3401.9875
32.6000	3473.3400
32.6100	3673.8925
32.6200	3656.0550
32.6300	3474.3350
32.6400	3464.6300
32.6500	3466.6675
32.6600	3145.2600
32.6700	3129.2000
32.6800	3366.7700
32.6900	3502.0600
32.7000	3370.9650
32.7100	3189.8350
32.7200	3050.2600
32.7300	3076.9550
32.7400	3403.0200
32.7500	3377.3925
32.7600	3090.9475
32.7700	2962.9900
32.7800	2892.0325
32.7900	3057.1200
32.8000	2938.6075
32.8100	2800.9650
32.8200	3086.8450
32.8300	3191.1050
32.8400	2997.9325
32.8500	2880.1250
32.8600	2996.3925
32.8700	2915.8375
32.8800	3000.7600
32.8900	2973.5125
32.9000	2880.4175
32.9100	2981.5875
32.9200	2827.7375
32.9300	3000.8375
32.9400	2918.6475
32.9500	2914.3250
32.9600	2859.4025
32.9700	2692.6300
32.9800	2652.3700
32.9900	2478.5575
33.0000	2578.4950
33.0100	2885.3500
33.0200	3075.9100
33.0300	3014.5125
33.0400	2800.6650
33.0500	2595.9250
33.0600	2765.7275
33.0700	2757.3725
33.0800	2551.2125
33.0900	2530.8550
33.1000	2689.3100
33.1100	2631.6475
33.1200	2715.7875
33.1300	2634.2800
33.1400	2729.7925
33.1500	2453.2500
33.1600	2640.0600
33.1700	2598.6650
33.1800	2710.2500
33.1900	2634.6900
33.2000	2574.4200
33.2100	2637.0300
33.2200	2734.3775
33.2300	2792.1600
33.2400	2715.7400
33.2500	2573.6975
33.2600	2648.1675
33.2700	2736.7375
33.2800	2721.9900
33.2900	2744.6550
33.3000	2568.1950
33.3100	2491.4075
33.3200	2497.3000
33.3300	2444.1775
33.3400	2503.0625
33.3500	2502.7300
33.3600	2388.5875
33.3700	2589.3375
33.3800	2591.6125
33.3900	2611.1275
33.4000	2630.5550
33.4100	2563.9425
33.4200	2452.9225
33.4300	2558.0600
33.4400	2583.3325
33.4500	2472.6200
33.4600	2297.8750
33.4700	2211.3875
33.4800	2227.6200
33.4900	2329.9350
33.5000	2515.4875
33.5100	2439.7525
33.5200	2251.4125
33.5300	2312.9975
33.5400	2498.3550
33.5500	2574.5600
33.5600	2597.0650
33.5700	2517.6625
33.5800	2445.1475
33.5900	2282.5950
33.6000	2250.0000
33.6100	2496.3125
33.6200	2385.9075
33.6300	2431.9875
33.6400	2477.3100
33.6500	2442.3975
33.6600	2296.9775
33.6700	2307.5450
33.6800	2330.2825
33.6900	2183.6625
33.7000	2340.3550
33.7100	2559.9650
33.7200	2382.7600
33.7300	2129.8175
33.7400	2110.4500
33.7500	2211.5050
33.7600	2314.5650
33.7700	2428.0375
33.7800	2166.0925
33.7900	2154.0400
33.8000	2301.6675
33.8100	2292.8625
33.8200	2310.2950
33.8300	2316.6675
33.8400	2330.1275
33.8500	2427.4950
33.8600	2261.8125
33.8700	2176.3700
33.8800	2435.1200
33.8900	2352.4575
33.9000	2249.6500
33.9100	2286.9075
33.9200	2286.6150
33.9300	2296.7075
33.9400	2233.1775
33.9500	2390.2825
33.9600	2246.4975
33.9700	2253.3425
33.9800	2173.3825
33.9900	2296.4825
34.0000	2320.0275
34.0100	2423.0450
34.0200	2343.7000
34.0300	2343.2225
34.0400	2190.7800
34.0500	2216.2925
34.0600	2299.5775
34.0700	2223.9925
34.0800	2120.6225
34.0900	2060.3400
34.1000	2102.8425
34.1100	2116.6675
34.1200	2222.1950
34.1300	2276.3625
34.1400	2151.6150
34.1500	1958.7200
34.1600	1956.1250
34.1700	2190.0975
34.1800	2289.4000
34.1900	2063.7725
34.2000	2013.1150
34.2100	1964.2475
34.2200	2159.5175
34.2300	2216.6675
34.2400	2164.3650
34.2500	2202.2650
34.2600	2007.7650
34.2700	2002.1875
34.2800	2120.9650
34.2900	2032.7525
34.3000	2078.1075
34.3100	2113.0075
34.3200	1999.6775
34.3300	2018.6225
34.3400	2033.3325
34.3500	2085.2125
34.3600	2203.6825
34.3700	2259.2350
34.3800	2150.1975
34.3900	2090.8025
34.4000	2083.3325
34.4100	2238.2800
34.4200	2231.7225
34.4300	2139.3075
34.4400	1871.8800
34.4500	1928.7400
34.4600	2133.9025
34.4700	2093.3500
34.4800	1976.7500
34.4900	2104.0275
34.5000	1970.4375
34.5100	2006.3800
34.5200	1982.1050
34.5300	1941.0725
34.5400	2022.8475
34.5500	1986.1100
34.5600	1787.9075
34.5700	1860.9225
34.5800	2142.2375
34.5900	1974.6125
34.6000	2001.8400
34.6100	1855.2450
34.6200	1914.4000
34.6300	1975.4025
34.6400	1945.2575
34.6500	1882.6050
34.6600	2044.0850
34.6700	1783.4200
34.6800	1658.0250
34.6900	1801.7275
34.7000	2014.2475
34.7100	1990.9175
34.7200	2130.6675
34.7300	2044.6700
34.7400	1987.4050
34.7500	2209.8950
34.7600	2144.9850
34.7700	2024.5950
34.7800	2000.0000
34.7900	2025.0975
34.8000	2033.3325
34.8100	1970.6875
34.8200	1824.8025
34.8300	1708.2725
34.8400	1720.8350
34.8500	1808.2800
34.8600	1658.5900
34.8700	1924.2750
34.8800	1995.9450
34.8900	1908.6150
34.9000	1846.0025
34.9100	1883.0700
34.9200	1775.7550
34.9300	1770.5775
34.9400	1944.6025
34.9500	1962.8125
34.9600	1900.4550
34.9700	2044.2325
34.9800	2112.3675
34.9900	1918.9425
35.0000	1850.0000
35.0100	1899.3550
35.0200	1928.9950
35.0300	1896.3750
35.0400	1797.1625
35.0500	1680.5625
35.0600	1625.4175
35.0700	1825.4550
35.0800	1850.9125
35.0900	1772.0200
35.1000	1811.2650
35.1100	1857.8200
35.1200	1719.8575
35.1300	1654.4425
35.1400	1650.0000
35.1500	1698.8225
35.1600	1728.8625
35.1700	1696.7725
35.1800	1805.1050
35.1900	1801.3300
35.2000	1661.7525
35.2100	1604.5175
35.2200	1672.8350
35.2300	1760.6475
35.2400	1710.6125
35.2500	1707.5550
35.2600	1728.7675
35.2700	1697.0575
35.2800	1683.3325
35.2900	1767.8425
35.3000	1800.0000
35.3100	1667.4075
35.3200	1857.5550
35.3300	1757.4425
35.3400	1695.3600
35.3500	1760.0800
35.3600	1759.3200
35.3700	1714.0100
35.3800	1640.0625
35.3900	1772.3825
35.4000	1821.3650
35.4100	1685.1150
35.4200	1645.2825
35.4300	1721.6425
35.4400	1857.3775
35.4500	1864.2350
35.4600	1814.2650
35.4700	1847.6100
35.4800	1747.7375
35.4900	1700.0000
35.5000	1652.5025
35.5100	1657.0625
35.5200	1595.5350
35.5300	1566.6675
35.5400	1507.4850
35.5500	1459.6800
35.5600	1509.0875
35.5700	1545.1425
35.5800	1538.2025
35.5900	1486.1775
35.6000	1584.4625
35.6100	1739.2650
35.6200	1712.7675
35.6300	1659.8300
35.6400	1685.2250
35.6500	1723.4650
35.6600	1768.5025
35.6700	1795.0475
35.6800	1636.1400
35.6900	1543.2775
35.7000	1498.2775
35.7100	1541.7125
35.7200	1730.0000
35.7300	1683.4275
35.7400	1528.5025
35.7500	1669.5475
35.7600	1622.0825
35.7700	1589.9050
35.7800	1658.0500
35.7900	1602.1275
35.8000	1531.8925
35.8100	1516.6675
35.8200	1597.6750
35.8300	1552.3925
35.8400	1551.3275
35.8500	1647.4775
35.8600	1660.2625
35.8700	1569.3200
35.8800	1510.3000
35.8900	1603.5600
35.9000	1546.5225
35.9100	1477.0250
35.9200	1604.4100
35.9300	1678.1350
35.9400	1591.6550
35.9500	1527.1000
35.9600	1596.7550
35.9700	1679.0600
35.9800	1677.1550
35.9900	1621.0150
36.0000	1565.7900
36.0100	1550.0000
36.0200	1606.9250
36.0300	1565.0800
36.0400	1453.7700
36.0500	1462.0950
36.0600	1653.5450
36.0700	1835.3750
36.0800	1690.7450
36.0900	1588.6800
36.1000	1504.1625
36.1100	1760.4825
36.1200	1967.7475
36.1300	1887.1800
36.1400	1630.4275
36.1500	1522.0700
36.1600	1561.6825
36.1700	1695.7800
36.1800	1626.4125
36.1900	1566.6675
36.2000	1622.7500
36.2100	1650.0000
36.2200	1538.0225
36.2300	1472.1450
36.2400	1544.9200
36.2500	1672.6925
36.2600	1694.3450
36.2700	1571.8200
36.2800	1583.5175
36.2900	1661.1975
36.3000	1560.9775
36.3100	1444.4300
36.3200	1483.2950
36.3300	1516.6675
36.3400	1538.8375
36.3500	1428.1575
36.3600	1554.8125
36.3700	1616.8250
36.3800	1688.3900
36.3900	1667.0975
36.4000	1611.2725
36.4100	1544.8950
36.4200	1505.6550
36.4300	1455.9900
36.4400	1488.2975
36.4500	1593.5525
36.4600	1611.3850
36.4700	1600.0000
36.4800	1457.5750
36.4900	1514.6900
36.5000	1769.2650
36.5100	1735.5325
36.5200	1470.1325
36.5300	1366.6675
36.5400	1508.3675
36.5500	1594.2250
36.5600	1534.7100
36.5700	1565.2325
36.5800	1426.1925
36.5900	1409.3100
36.6000	1417.4675
36.6100	1519.1850
36.6200	1550.8550
36.6300	1479.2500
36.6400	1525.6500
36.6500	1501.8775
36.6600	1412.7225
36.6700	1448.0100
36.6800	1418.7125
36.6900	1275.7225
36.7000	1367.1900
36.7100	1450.0000
36.7200	1471.4675
36.7300	1622.7450
36.7400	1646.4250
36.7500	1563.1400
36.7600	1522.6375
36.7700	1516.6675
36.7800	1548.7000
36.7900	1577.3350
36.8000	1530.0375
36.8100	1425.4500
36.8200	1489.7425
36.8300	1560.6325
36.8400	1502.9325
36.8500	1445.4400
36.8600	1390.9175
36.8700	1218.3400
36.8800	1249.7725
36.8900	1401.2775
36.9000	1302.0625
36.9100	1343.3600
36.9200	1595.9925
36.9300	1541.9100
36.9400	1397.3500
36.9500	1366.6675
36.9600	1440.2500
36.9700	1304.7900
36.9800	1273.4525
36.9900	1442.4775
37.0000	1474.7675
37.0100	1324.4100
37.0200	1323.1950
37.0300	1418.9025
37.0400	1470.8775
37.0500	1504.1925
37.0600	1412.4675
37.0700	1381.2325
37.0800	1368.7950
37.0900	1318.8225
37.1000	1331.1500
37.1100	1370.7475
37.1200	1466.2500
37.1300	1454.5325
37.1400	1313.2025
37.1500	1353.3725
37.1600	1457.9775
37.1700	1442.0575
37.1800	1396.0475
37.1900	1342.1325
37.2000	1347.5400
37.2100	1438.6425
37.2200	1390.8750
37.2300	1405.1800
37.2400	1429.4900
37.2500	1293.7200
37.2600	1390.6850
37.2700	1479.5450
37.2800	1303.1775
37.2900	1332.7175
37.3000	1406.4675
37.3100	1400.0000
37.3200	1410.1825
37.3300	1548.9075
37.3400	1653.6600
37.3500	1422.9675
37.3600	1378.2625
37.3700	1591.9025
37.3800	1612.4475
37.3900	1516.0800
37.4000	1321.5975
37.4100	1186.3675
37.4200	1297.8400
37.4300	1494.2250
37.4400	1435.7300
37.4500	1360.0625
37.4600	1356.6125
37.4700	1239.5100
37.4800	1256.9875
37.4900	1396.8775
37.5000	1480.0525
37.5100	1550.0400
37.5200	1443.3450
37.5300	1270.0800
37.5400	1326.4575
37.5500	1449.8600
37.5600	1353.8175
37.5700	1216.8975
37.5800	1143.5550
37.5900	1146.4725
37.6000	1226.2250
37.6100	1207.1625
37.6200	1176.5750
37.6300	1292.2225
37.6400	1356.7775
37.6500	1379.6425
37.6600	1439.4875
37.6700	1348.3125
37.6800	1384.9100
37.6900	1417.4425
37.7000	1363.6625
37.7100	1291.0400
37.7200	1181.2775
37.7300	1182.3750
37.7400	1246.0650
37.7500	1256.8775
37.7600	1308.6875
37.7700	1408.6325
37.7800	1420.7100
37.7900	1458.5250
37.8000	1451.2750
37.8100	1455.6100
37.8200	1434.7000
37.8300	1370.8475
37.8400	1243.2025
37.8500	1234.5650
37.8600	1283.3325
37.8700	1360.7875
37.8800	1368.3025
37.8900	1323.6700
37.9000	1364.9400
37.9100	1409.6450
37.9200	1349.2100
37.9300	1338.5100
37.9400	1347.4300
37.9500	1333.3325
37.9600	1371.7350
37.9700	1400.0000
37.9800	1332.9225
37.9900	1292.9075
38.0000	1309.5650
38.0100	1326.2225
38.0200	1371.5200
38.0300	1276.0125
38.0400	1230.9750
38.0500	1238.1075
38.0600	1283.2400
38.0700	1380.8400
38.0800	1426.1600
38.0900	1310.0475
38.1000	1264.0400
38.1100	1375.7225
38.1200	1329.3125
38.1300	1231.1050
38.1400	1263.8600
38.1500	1356.5775
38.1600	1437.6825
38.1700	1457.2550
38.1800	1365.3775
38.1900	1403.3300
38.2000	1445.7950
38.2100	1304.1575
38.2200	1272.8675
38.2300	1363.4550
38.2400	1428.0475
38.2500	1515.3800
38.2600	1380.0475
38.2700	1307.9100
38.2800	1236.2850
38.2900	1226.3750
38.3000	1281.4100
38.3100	1275.9525
38.3200	1264.7800
38.3300	1296.3425
38.3400	1287.0375
38.3500	1148.2450
38.3600	1168.3225
38.3700	1240.7675
38.3800	1251.7800
38.3900	1257.4525
38.4000	1194.7650
38.4100	1287.9525
38.4200	1335.6850
38.4300	1347.5875
38.4400	1317.4700
38.4500	1149.2275
38.4600	1084.9700
38.4700	1237.1500
38.4800	1194.7150
38.4900	1048.4150
38.5000	1179.2000
38.5100	1227.1375
38.5200	1112.0750
38.5300	1093.9375
38.5400	1207.4775
38.5500	1374.0550
38.5600	1323.1150
38.5700	1216.6675
38.5800	1225.7125
38.5900	1188.1500
38.6000	1150.0000
38.6100	1131.9625
38.6200	1152.7075
38.6300	1138.3275
38.6400	1135.9675
38.6500	1193.6175
38.6600	1252.5650
38.6700	1202.6425
38.6800	1169.1600
38.6900	1235.7925
38.7000	1266.6675
38.7100	1275.5975
38.7200	1238.7275
38.7300	1173.2625
38.7400	1176.7100
38.7500	1208.8950
38.7600	1278.8675
38.7700	1333.3325
38.7800	1359.9375
38.7900	1392.1925
38.8000	1373.4475
38.8100	1332.3175
38.8200	1263.6700
38.8300	1146.0750
38.8400	1074.5175
38.8500	1093.0850
38.8600	1160.6550
38.8700	1217.5775
38.8800	1145.5350
38.8900	1154.3775
38.9000	1189.5225
38.9100	1220.0275
38.9200	1318.3125
38.9300	1341.2650
38.9400	1315.8800
38.9500	1352.3075
38.9600	1339.0350
38.9700	1205.0275
38.9800	1150.7175
38.9900	1253.4950
39.0000	1298.6375
39.0100	1162.6825
39.0200	1135.9200
39.0300	1208.6475
39.0400	1182.1100
39.0500	1150.0000
39.0600	1124.1350
39.0700	1117.2250
39.0800	1116.1250
39.0900	1005.4550
39.1000	890.9075
39.1100	943.8650
39.1200	1136.6300
39.1300	1147.2800
39.1400	1109.8575
39.1500	1166.6675
39.1600	1158.1325
39.1700	1201.1500
39.1800	1258.5150
39.1900	1275.1750
39.2000	1300.3300
39.2100	1248.7475
39.2200	1166.3700
39.2300	1166.9450
39.2400	1174.8700
39.2500	1099.0275
39.2600	991.1025
39.2700	1051.2500
39.2800	1200.5725
39.2900	1258.4200
39.3000	1333.9575
39.3100	1282.3650
39.3200	1225.4225
39.3300	1157.5575
39.3400	1083.5925
39.3500	1158.4375
39.3600	1149.8975
39.3700	1116.6675
39.3800	1083.3000
39.3900	1058.3325
39.4000	1083.3150
39.4100	1066.7375
39.4200	1091.4800
39.4300	1274.4700
39.4400	1292.2375
39.4500	1100.5275
39.4600	1066.2975
39.4700	1075.3500
39.4800	1140.6425
39.4900	1184.0325
39.5000	1067.2425
39.5100	1024.8950
39.5200	1156.6300
39.5300	1184.8000
39.5400	1173.5600
39.5500	1266.6675
39.5600	1184.8150
39.5700	1091.8225
39.5800	1116.0050
39.5900	1223.4325
39.6000	1234.7950
39.6100	1085.2475
39.6200	1008.1325
39.6300	1073.5375
39.6400	1198.2600
39.6500	1258.5600
39.6600	1217.6050
39.6700	1215.6925
39.6800	1201.5125
39.6900	1125.7825
39.7000	1164.5125
39.7100	1136.6675
39.7200	1049.4275
39.7300	1082.7425
39.7400	1148.1775
39.7500	1143.8525
39.7600	1067.3075
39.7700	1058.0025
39.7800	1066.6675
39.7900	1026.7350
39.8000	967.3775
39.8100	950.0000
39.8200	934.0775
39.8300	908.7150
39.8400	979.4350
39.8500	1185.6900
39.8600	1237.4050
39.8700	1134.1650
39.8800	1164.1200
39.8900	1279.8700
39.9000	1255.2975
39.9100	1094.8175
39.9200	1096.3300
39.9300	1237.4625
39.9400	1230.2325
39.9500	1219.6725
39.9600	1277.4650
39.9700	1194.1750
39.9800	1110.8825
39.9900	1004.1500
40.0000	987.9775
40.0100	1081.1900
40.0200	1163.4000
40.0300	1193.3250
40.0400	1127.8075
40.0500	1060.0425
40.0600	1126.3900
40.0700	1303.0500
40.0800	1313.6950
40.0900	1163.7700
40.1000	1083.3325
40.1100	1075.6200
40.1200	1143.7025
40.1300	1225.6375
40.1400	1232.0400
40.1500	1188.5750
40.1600	1155.0150
40.1700	1169.3550
40.1800	1072.1150
40.1900	1022.9325
40.2000	1080.5425
40.2100	1040.3975
40.2200	927.1450
40.2300	1036.9775
40.2400	1169.5950
40.2500	1049.8125
40.2600	927.2475
40.2700	900.0000
40.2800	945.4050
40.2900	1007.5600
40.3000	1099.7200
40.3100	1147.2075
40.3200	1083.3325
40.3300	1045.7075
40.3400	1007.5175
40.3500	1099.2550
40.3600	1095.0075
40.3700	1064.0500
40.3800	1213.2625
40.3900	1190.2075
40.4000	1124.1325
40.4100	1118.4200
40.4200	1085.1025
40.4300	1148.5100
40.4400	1302.0225
40.4500	1307.2800
40.4600	1144.3550
40.4700	1033.3325
40.4800	996.3425
40.4900	964.7800
40.5000	1049.7650
40.5100	1192.3150
40.5200	1207.7525
40.5300	1074.4875
40.5400	1051.4325
40.5500	1160.7000
40.5600	1231.3275
40.5700	1191.4225
40.5800	1065.4700
40.5900	1007.3050
40.6000	1089.6350
40.6100	1190.6225
40.6200	1178.1600
40.6300	1135.4575
40.6400	1094.8775
40.6500	1030.3925
40.6600	1026.8125
40.6700	1141.2375
40.6800	1209.4375
40.6900	1106.1225
40.7000	997.7600
40.7100	1059.8950
40.7200	1116.6675
40.7300	1123.8550
40.7400	1233.8450
40.7500	1280.6125
40.7600	1145.1775
40.7700	1152.4375
40.7800	1264.3150
40.7900	1271.4875
40.8000	1180.9250
40.8100	1221.3625
40.8200	1242.8875
40.8300	1219.1250
40.8400	1192.9050
40.8500	1254.2075
40.8600	1342.9200
40.8700	1297.9800
40.8800	1292.3750
40.8900	1321.7825
40.9000	1255.1500
40.9100	1237.7800
40.9200	1238.5500
40.9300	1171.9175
40.9400	1084.2450
40.9500	1051.6875
40.9600	1162.9625
40.9700	1215.0625
40.9800	1173.6450
40.9900	1211.2175
41.0000	1215.1875
41.0100	1104.0775
41.0200	981.9375
41.0300	988.8350
41.0400	1135.9600
41.0500	1184.8850
41.0600	1116.6675
41.0700	1054.5250
41.0800	959.7700
41.0900	1005.1025
41.1000	1097.0925
41.1100	1082.3100
41.1200	1095.1025
41.1300	1149.0600
41.1400	1120.5400
41.1500	1150.0000
41.1600	1109.0200
41.1700	968.1375
41.1800	911.3225
41.1900	1013.6100
41.2000	1046.9275
41.2100	1087.0325
41.2200	1137.0075
41.2300	1112.4875
41.2400	1053.6250
41.2500	1096.8450
41.2600	1157.1525
41.2700	1156.0125
41.2800	1066.6675
41.2900	1039.7750
41.3000	986.5700
41.3100	1006.9050
41.3200	1039.8750
41.3300	1020.0700
41.3400	1063.3625
41.3500	1029.9450
41.3600	976.6625
41.3700	1063.2675
41.3800	1113.3875
41.3900	1116.5375
41.4000	1067.1800
41.4100	896.7950
41.4200	1005.6050
41.4300	1203.4500
41.4400	1163.5350
41.4500	1034.4600
41.4600	876.7500
41.4700	945.5700
41.4800	1046.9650
41.4900	983.8725
41.5000	933.3325
41.5100	959.5025
41.5200	1032.6725
41.5300	1083.3325
41.5400	1063.7800
41.5500	1091.9225
41.5600	1150.8250
41.5700	1100.0000
41.5800	1022.1750
41.5900	835.2275
41.6000	798.0250
41.6100	919.3825
41.6200	911.2825
41.6300	837.1100
41.6400	842.4125
41.6500	934.7600
41.6600	1029.5075
41.6700	1094.8850
41.6800	1141.0500
41.6900	1119.1875
41.7000	1105.2850
41.7100	995.0550
41.7200	965.1900
41.7300	1061.2100
41.7400	1158.7550
41.7500	1187.3050
41.7600	1242.7375
41.7700	1284.3625
41.7800	1124.7075
41.7900	1089.6475
41.8000	1081.0800
41.8100	1037.4025
41.8200	1016.6675
41.8300	1060.6450
41.8400	1108.2350
41.8500	1085.4650
41.8600	1104.1500
41.8700	1070.8325
41.8800	1043.7575
41.8900	1070.7375
41.9000	1120.8800
41.9100	1050.2550
41.9200	1034.9750
41.9300	1181.0100
41.9400	1183.7825
41.9500	1019.5850
41.9600	957.4675
41.9700	1095.6725
41.9800	1085.8575
41.9900	1076.4100
42.0000	1063.9625
42.0100	892.1175
42.0200	911.2950
42.0300	1022.7875
42.0400	1033.3325
42.0500	1033.3325
42.0600	966.2600
42.0700	935.2525
42.0800	1065.0900
42.0900	1063.7000
42.1000	1074.2075
42.1100	987.8850
42.1200	942.4700
42.1300	900.0000
42.1400	972.4025
42.1500	1124.1025
42.1600	1148.6150
42.1700	1116.6675
42.1800	1176.6825
42.1900	1271.3450
42.2000	1244.0150
42.2100	1167.5800
42.2200	1044.0300
42.2300	1092.9500
42.2400	1188.0925
42.2500	1125.0475
42.2600	1044.0625
42.2700	1039.2625
42.2800	1038.1550
42.2900	1010.7525
42.3000	1053.1550
42.3100	1096.9175
42.3200	1047.1200
42.3300	1139.2150
42.3400	1144.1250
42.3500	1174.3975
42.3600	1226.5675
42.3700	1130.6800
42.3800	1062.5450
42.3900	1046.6500
42.4000	910.8400
42.4100	911.6375
42.4200	979.8200
42.4300	1089.8775
42.4400	1179.6950
42.4500	1208.7950
42.4600	1094.2200
42.4700	1089.1050
42.4800	1082.7100
42.4900	1021.2225
42.5000	978.1625
42.5100	1034.4400
42.5200	1082.8050
42.5300	1015.6550
42.5400	938.5675
42.5500	968.0425
42.5600	1060.9650
42.5700	1072.7700
42.5800	1110.9825
42.5900	1065.9375
42.6000	1022.6750
42.6100	1038.3600
42.6200	1005.9475
42.6300	1123.3925
42.6400	1244.1150
42.6500	1115.5525
42.6600	1011.8425
42.6700	1094.0350
42.6800	1016.6675
42.6900	1016.6675
42.7000	1022.2575
42.7100	999.8375
42.7200	933.3325
42.7300	955.6025
42.7400	1000.0000
42.7500	1005.5525
42.7600	1011.1225
42.7700	1005.5350
42.7800	1083.0050
42.7900	1139.3825
42.8000	950.2575
42.8100	844.8000
42.8200	838.1275
42.8300	1038.2250
42.8400	1122.5925
42.8500	1088.5600
42.8600	1062.2775
42.8700	911.2075
42.8800	943.6025
42.8900	1087.7575
42.9000	1167.3925
42.9100	1083.7200
42.9200	1093.3550
42.9300	1145.4525
42.9400	1028.8400
42.9500	944.6050
42.9600	938.7225
42.9700	950.0000
42.9800	950.0000
42.9900	971.4600
43.0000	1016.6675
43.0100	1011.3175
43.0200	989.3175
43.0300	1009.3400
43.0400	1115.9800
43.0500	1123.4075
43.0600	1056.0450
43.0700	1001.5150
43.0800	938.6300
43.0900	992.3025
43.1000	1099.1725
43.1100	1128.0600
43.1200	1106.1375
43.1300	1093.8475
43.1400	1090.4200
43.1500	1012.3675
43.1600	982.3675
43.1700	990.5350
43.1800	902.0225
43.1900	885.4425
43.2000	1041.6250
43.2100	1143.7250
43.2200	1151.1025
43.2300	1085.5850
43.2400	1016.6675
43.2500	1047.6550
43.2600	1075.4075
43.2700	942.1375
43.2800	916.8450
43.2900	1128.2775
43.3000	1200.0200
43.3100	1116.5475
43.3200	1200.2175
43.3300	998.9625
43.3400	959.7750
43.3500	1148.6000
43.3600	1117.2825
43.3700	946.3725
43.3800	970.9200
43.3900	1113.1000
43.4000	1076.7675
43.4100	1160.5150
43.4200	1325.1750
43.4300	1373.2775
43.4400	1269.6800
43.4500	1088.3450
43.4600	1175.0725
43.4700	1320.0175
43.4800	1225.0525
43.4900	1136.7750
43.5000	1086.5650
43.5100	1143.2675
43.5200	1156.7475
43.5300	1123.4300
43.5400	1109.8875
43.5500	1123.4600
43.5600	1129.5750
43.5700	1209.8425
43.5800	1218.5925
43.5900	1119.5500
43.6000	1000.9600
43.6100	1088.2250
43.6200	1095.1150
43.6300	1107.7150
43.6400	1161.7975
43.6500	1159.7225
43.6600	1202.7475
43.6700	1225.7700
43.6800	1190.8600
43.6900	1211.3500
43.7000	1111.8425
43.7100	1138.5300
43.7200	1190.0550
43.7300	1102.5375
43.7400	1126.0325
43.7500	1061.8800
43.7600	1088.2300
43.7700	1188.1050
43.7800	1219.0550
43.7900	1242.8850
43.8000	1135.8475
43.8100	1064.0775
43.8200	1192.8000
43.8300	1254.4775
43.8400	1312.2500
43.8500	1216.6675
43.8600	1249.5925
43.8700	1352.1200
43.8800	1343.7325
43.8900	1228.0900
43.9000	1374.7850
43.9100	1487.3350
43.9200	1292.6525
43.9300	1298.0600
43.9400	1296.4425
43.9500	1421.3025
43.9600	1447.2225
43.9700	1446.3575
43.9800	1363.8425
43.9900	1418.4275
44.0000	1443.6675
44.0100	1346.5950
44.0200	1314.1875
44.0300	1487.9100
44.0400	1500.0000
44.0500	1527.3750
44.0600	1627.3325
44.0700	1681.8075
44.0800	1597.0100
44.0900	1531.7325
44.1000	1580.4600
44.1100	1438.1500
44.1200	1352.7550
44.1300	1463.5100
44.1400	1486.5125
44.1500	1405.1125
44.1600	1310.2225
44.1700	1392.2825
44.1800	1407.7325
44.1900	1338.7400
44.2000	1238.9275
44.2100	1353.3375
44.2200	1429.0025
44.2300	1220.0425
44.2400	1254.0975
44.2500	1436.7550
44.2600	1404.4075
44.2700	1473.8750
44.2800	1628.9400
44.2900	1564.0350
44.3000	1416.6675
44.3100	1416.6675
44.3200	1421.0300
44.3300	1411.5500
44.3400	1371.7475
44.3500	1481.0975
44.3600	1568.9825
44.3700	1398.7125
44.3800	1312.9600
44.3900	1367.2525
44.4000	1403.7500
44.4100	1426.8450
44.4200	1604.2900
44.4300	1569.5425
44.4400	1441.8875
44.4500	1483.7450
44.4600	1520.5475
44.4700	1491.8425
44.4800	1537.9050
44.4900	1587.2800
44.5000	1554.2325
44.5100	1575.1175
44.5200	1566.2500
44.5300	1475.0900
44.5400	1546.2450
44.5500	1632.9700
44.5600	1483.3325
44.5700	1525.1575
44.5800	1641.6500
44.5900	1587.4900
44.6000	1450.0700
44.6100	1295.8475
44.6200	1345.5300
44.6300	1545.7500
44.6400	1529.6175
44.6500	1399.6650
44.6600	1516.4700
44.6700	1505.0100
44.6800	1320.7700
44.6900	1407.0625
44.7000	1629.2450
44.7100	1608.5025
44.7200	1607.7800
44.7300	1667.0650
44.7400	1636.9675
44.7500	1708.1050
44.7600	1749.5175
44.7700	1783.8450
44.7800	1741.3975
44.7900	1843.1300
44.8000	2051.1950
44.8100	1962.0300
44.8200	1939.9550
44.8300	1765.9825
44.8400	1888.4625
44.8500	2124.6300
44.8600	2134.1025
44.8700	2111.1050
44.8800	2180.2000
44.8900	2144.3375
44.9000	2233.3325
44.9100	2292.4150
44.9200	2514.7875
44.9300	2600.9675
44.9400	2502.9900
44.9500	2482.9550
44.9600	2893.2475
44.9700	2886.8000
44.9800	3066.1075
44.9900	2907.7650
45.0000	2968.2075
45.0100	3098.8050
45.0200	3196.3300
45.0300	3323.0225
45.0400	3260.2600
45.0500	3353.8400
45.0600	3447.1525
45.0700	3804.6550
45.0800	4080.9075
45.0900	4066.2150
45.1000	4248.5500
45.1100	4356.9600
45.1200	4580.3225
45.1300	4728.7325
45.1400	4981.5175
45.1500	5418.4375
45.1600	5905.8700
45.1700	6409.6200
45.1800	6529.9850
45.1900	6734.3450
45.2000	7120.6750
45.2100	7309.6350
45.2200	7635.7125
45.2300	8176.2500
45.2400	8783.4450
45.2500	9544.2300
45.2600	10314.3550
45.2700	11209.2300
45.2800	12948.9775
45.2900	14949.0050
45.3000	17185.1100
45.3100	19058.7425
45.3200	21991.5100
45.3300	25234.4225
45.3400	28716.3925
45.3500	32979.9725
45.3600	37405.6425
45.3700	41754.9700
45.3800	47043.8075
45.3900	53709.9125
45.4000	61521.5850
45.4100	67830.3025
45.4200	72263.8075
45.4300	78003.4600
45.4400	84074.2425
45.4500	86630.1200
45.4600	88061.9250
45.4700	89692.1925
45.4800	89452.0600
45.4900	88795.5750
45.5000	85320.1900
45.5100	82646.4400
45.5200	79409.7725
45.5300	75597.1450
45.5400	72696.6825
45.5500	69549.3900
45.5600	65619.1025
45.5700	60875.5000
45.5800	57706.6875
45.5900	53449.0250
45.6000	49903.3200
45.6100	46335.8525
45.6200	42749.5450
45.6300	38589.9000
45.6400	34320.0775
45.6500	30462.9525
45.6600	27226.2750
45.6700	23658.3775
45.6800	19909.0700
45.6900	17287.3175
45.7000	14700.5250
45.7100	12301.6925
45.7200	11569.8950
45.7300	10220.8050
45.7400	9071.8600
45.7500	8219.0750
45.7600	7552.9925
45.7700	7096.3625
45.7800	6479.9875
45.7900	6093.5325
45.8000	5623.5025
45.8100	5373.7875
45.8200	5017.0650
45.8300	4734.1675
45.8400	4442.8125
45.8500	4629.8125
45.8600	4604.6200
45.8700	4234.2400
45.8800	3856.9625
45.8900	3156.1500
45.9000	3227.2325
45.9100	3188.5125
45.9200	3374.5575
45.9300	3183.8375
45.9400	3055.3800
45.9500	2754.9350
45.9600	2582.7275
45.9700	2637.1775
45.9800	2554.5450
45.9900	2449.2925
46.0000	2491.1850
46.0100	2357.9050
46.0200	2275.3750
46.0300	2348.5175
46.0400	2181.0500
46.0500	2084.2400
46.0600	2010.3775
46.0700	1977.0575
46.0800	1896.7600
46.0900	1694.7925
46.1000	1829.1400
46.1100	1880.2225
46.1200	1851.1425
46.1300	1777.1375
46.1400	1771.6425
46.1500	1860.4975
46.1600	1827.1775
46.1700	1787.7125
46.1800	1727.2025
46.1900	1706.1175
46.2000	1702.8150
46.2100	1542.3050
46.2200	1448.5250
46.2300	1553.0475
46.2400	1722.7175
46.2500	1710.7575
46.2600	1539.3575
46.2700	1587.7050
46.2800	1716.3200
46.2900	1842.7300
46.3000	1691.5350
46.3100	1494.0425
46.3200	1493.4175
46.3300	1613.7000
46.3400	1591.1225
46.3500	1532.2850
46.3600	1405.8100
46.3700	1255.8475
46.3800	1513.7350
46.3900	1470.7375
46.4000	1356.6900
46.4100	1460.8400
46.4200	1433.3325
46.4300	1476.8325
46.4400	1660.1850
46.4500	1547.1125
46.4600	1498.7700
46.4700	1341.9550
46.4800	1417.7400
46.4900	1569.0300
46.5000	1482.8750
46.5100	1422.7825
46.5200	1513.4450
46.5300	1428.0050
46.5400	1517.2700
46.5500	1669.2250
46.5600	1600.0000
46.5700	1585.9575
46.5800	1499.8550
46.5900	1411.0750
46.6000	1363.8100
46.6100	1258.3175
46.6200	1222.2200
46.6300	1261.0800
46.6400	1330.4825
46.6500	1400.0000
46.6600	1383.4975
46.6700	1335.6700
46.6800	1500.2425
46.6900	1381.1650
46.7000	1208.1725
46.7100	1269.0250
46.7200	1369.3775
46.7300	1367.1025
46.7400	1277.9350
46.7500	1241.9225
46.7600	1234.9150
46.7700	1379.1550
46.7800	1180.6600
46.7900	1193.3325
46.8000	1338.6525
46.8100	1342.7825
46.8200	1192.8400
46.8300	1100.9975
46.8400	1285.9675
46.8500	1289.4875
46.8600	1251.6850
46.8700	1331.6925
46.8800	1235.9425
46.8900	1242.1925
46.9000	1233.7500
46.9100	1408.8975
46.9200	1353.7500
46.9300	1288.4875
46.9400	1314.0950
46.9500	1300.0000
46.9600	1315.3475
46.9700	1389.7925
46.9800	1318.0600
46.9900	1233.3325
47.0000	1233.3325
47.0100	1218.1750
47.0200	1113.1725
47.0300	1010.0550
47.0400	1059.1450
47.0500	1041.6775
47.0600	1160.8800
47.0700	1035.8225
47.0800	1042.5525
47.0900	1007.4275
47.1000	1069.7575
47.1100	1183.3325
47.1200	1210.3600
47.1300	1361.7650
47.1400	1311.3325
47.1500	1163.8275
47.1600	1069.4550
47.1700	1193.0350
47.1800	1264.5150
47.1900	1330.6950
47.2000	1216.6675
47.2100	1211.8650
47.2200	1173.7550
47.2300	1107.1150
47.2400	1042.8550
47.2500	1023.7550
47.2600	1187.9900
47.2700	1302.4875
47.2800	1209.5950
47.2900	1161.9650
47.3000	1140.3675
47.3100	1206.7150
47.3200	1347.6675
47.3300	1319.3775
47.3400	1228.6950
47.3500	1202.3125
47.3600	1209.7450
47.3700	1143.6550
47.3800	1018.3600
47.3900	1144.7775
47.4000	1232.6450
47.4100	1324.2275
47.4200	1248.5050
47.4300	1124.2775
47.4400	1102.7925
47.4500	1337.8375
47.4600	1344.2125
47.4700	1213.4350
47.4800	1304.4675
47.4900	1317.7450
47.5000	1201.1200
47.5100	1104.4300
47.5200	1146.5850
47.5300	1228.9275
47.5400	1204.3925
47.5500	1224.5725
47.5600	1166.6675
47.5700	1144.8850
47.5800	1004.3450
47.5900	1035.5000
47.6000	1060.8000
47.6100	1129.0250
47.6200	1108.5900
47.6300	1149.5350
47.6400	1033.3325
47.6500	1046.1100
47.6600	1137.5800
47.6700	1158.1975
47.6800	1100.0000
47.6900	1102.1050
47.7000	1129.2600
47.7100	1216.6675
47.7200	1191.6225
47.7300	1008.3425
47.7400	974.8975
47.7500	1135.5175
47.7600	1037.4600
47.7700	1039.9300
47.7800	866.4050
47.7900	983.3325
47.8000	983.3325
47.8100	979.2675
47.8200	990.5325
47.8300	1267.1675
47.8400	1129.8550
47.8500	987.3500
47.8600	1020.6725
47.8700	1065.9725
47.8800	1183.3325
47.8900	1171.4250
47.9000	1095.2050
47.9100	1191.2250
47.9200	1251.9675
47.9300	1247.0600
47.9400	1101.9550
47.9500	1110.8200
47.9600	1060.8375
47.9700	1006.9825
47.9800	973.8825
47.9900	1271.7825
48.0000	1187.1725
48.0100	1205.1875
48.0200	1099.5025
48.0300	968.5675
48.0400	987.1250
48.0500	1012.8875
48.0600	972.0325
48.0700	900.2325
48.0800	1048.3075
48.0900	1151.7400
48.1000	1031.4725
48.1100	1022.2275
48.1200	1050.0350
48.1300	947.9850
48.1400	1212.8550
48.1500	1276.3975
48.1600	968.2450
48.1700	1116.6675
48.1800	1113.0400
48.1900	1070.6850
48.2000	972.0700
48.2100	1009.4850
48.2200	966.1050
48.2300	1096.4325
48.2400	1064.8900
48.2500	1053.5425
48.2600	1078.0350
48.2700	1036.8525
48.2800	1064.9125
48.2900	1051.7475
48.3000	1054.4675
48.3100	946.5275
48.3200	928.7850
48.3300	1016.0800
48.3400	875.2625
48.3500	967.1350
48.3600	1114.9600
48.3700	1079.5750
48.3800	916.9625
48.3900	1059.9050
48.4000	994.9450
48.4100	944.9625
48.4200	910.0375
48.4300	1000.0000
48.4400	1023.2625
48.4500	1221.7425
48.4600	1095.2175
48.4700	904.9325
48.4800	972.9400
48.4900	1178.4350
48.5000	1123.5725
48.5100	1034.9550
48.5200	1062.9250
48.5300	1173.6750
48.5400	1075.3125
48.5500	1014.3850
48.5600	1157.9625
48.5700	1239.6800
48.5800	1268.3775
48.5900	971.3925
48.6000	1016.6675
48.6100	1016.6675
48.6200	1016.6675
48.6300	1022.8775
48.6400	1070.9575
48.6500	966.9550
48.6600	1124.1200
48.6700	1034.8625
48.6800	1046.9525
48.6900	1024.2600
48.7000	1086.3850
48.7100	959.0425
48.7200	1046.9975
48.7300	1019.6575
48.7400	1048.5100
48.7500	1027.3950
48.7600	979.9775
48.7700	1118.1400
48.7800	1134.8000
48.7900	1133.9175
48.8000	965.2100
48.8100	948.5500
48.8200	923.2175
48.8300	836.8200
48.8400	1061.4700
48.8500	1184.7625
48.8600	1185.7725
48.8700	1037.5850
48.8800	1100.2700
48.8900	1273.4925
48.9000	1152.6650
48.9100	1006.9725
48.9200	1084.7225
48.9300	1094.4650
48.9400	1040.2225
48.9500	1109.8050
48.9600	1027.8650
48.9700	969.3900
48.9800	1001.3550
48.9900	1009.9150
49.0000	936.0225
49.0100	972.0225
49.0200	1036.0000
49.0300	1053.3875
49.0400	902.6450
49.0500	946.5025
49.0600	1100.0000
49.0700	1089.5525
49.0800	969.2675
49.0900	1005.1800
49.1000	1057.6425
49.1100	948.7175
49.1200	948.6725
49.1300	1125.6975
49.1400	1030.8000
49.1500	994.9525
49.1600	937.1025
49.1700	997.0900
49.1800	1160.4400
49.1900	1078.3750
49.2000	1014.1975
49.2100	991.9350
49.2200	1107.3400
49.2300	1185.3850
49.2400	992.7250
49.2500	904.8275
49.2600	976.2775
49.2700	1102.3925
49.2800	1127.3800
49.2900	1044.0750
49.3000	969.0250
49.3100	992.9550
49.3200	918.7000
49.3300	1167.8300
49.3400	1178.7025
49.3500	1108.6000
49.3600	998.8525
49.3700	990.1825
49.3800	1090.1500
49.3900	1168.6325
49.4000	971.1675
49.4100	1040.0550
49.4200	1133.3325
49.4300	1121.1300
49.4400	951.1050
49.4500	975.4550
49.4600	1098.9075
49.4700	1076.8075
49.4800	981.1675
49.4900	953.2300
49.5000	995.7125
49.5100	935.4650
49.5200	962.4225
49.5300	909.5000
49.5400	1052.1000
49.5500	1068.7050
49.5600	843.7625
49.5700	760.3425
49.5800	921.8100
49.5900	1002.0475
49.6000	1029.2600
49.6100	971.7300
49.6200	1048.9925
49.6300	1024.3125
49.6400	891.3100
49.6500	1012.7000
49.6600	959.8625
49.6700	1107.8375
49.6800	965.6900
49.6900	945.1475
49.7000	874.3875
49.7100	999.0400
49.7200	991.9250
49.7300	1120.9925
49.7400	913.8350
49.7500	877.9325
49.7600	1064.8000
49.7700	1023.1225
49.7800	847.2300
49.7900	803.6700
49.8000	869.4050
49.8100	917.5750
49.8200	938.7450
49.8300	1029.7475
49.8400	957.7525
49.8500	809.7500
49.8600	984.2150
49.8700	1000.0000
49.8800	998.2600
49.8900	971.8600
49.9000	1064.9475
49.9100	1025.6375
49.9200	883.3325
49.9300	879.1100
49.9400	808.3925
49.9500	974.1750
49.9600	1111.6925
49.9700	1016.6675
49.9800	1013.3925
49.9900	945.9325
50.0000	869.0925
50.0100	927.1075
50.0200	1123.7575
50.0300	922.2350
50.0400	703.9375
50.0500	790.3750
50.0600	930.2250
50.0700	869.7550
50.0800	935.6350
50.0900	974.1925
50.1000	796.9525
50.1100	1077.3200
50.1200	947.0150
50.1300	886.2975
50.1400	951.4725
50.1500	977.4850
50.1600	853.6300
50.1700	928.2875
50.1800	820.9600
50.1900	923.7725
50.2000	1079.8050
50.2100	996.4975
50.2200	920.1425
50.2300	998.6200
50.2400	964.6125
50.2500	911.2275
50.2600	788.7325
50.2700	913.3175
50.2800	832.6675
50.2900	823.2650
50.3000	975.4775
50.3100	785.9325
50.3200	848.0675
50.3300	802.5575
50.3400	873.0100
50.3500	1030.8150
50.3600	964.7925
50.3700	914.1900
50.3800	848.7725
50.3900	820.3225
50.4000	921.5000
50.4100	1048.8025
50.4200	1010.1300
50.4300	833.3325
50.4400	833.3325
50.4500	834.4925
50.4600	869.5375
50.4700	944.8775
50.4800	803.9475
50.4900	916.1075
50.5000	900.0000
50.5100	902.1975
50.5200	966.6675
50.5300	965.0500
50.5400	925.7475
50.5500	1188.8875
50.5600	854.1950
50.5700	984.3725
50.5800	1020.7800
50.5900	1147.4525
50.6000	1064.6500
50.6100	1000.5000
50.6200	1014.1950
50.6300	932.3550
50.6400	905.8150
50.6500	1098.0825
50.6600	1033.8075
50.6700	1049.0600
50.6800	1018.9900
50.6900	1099.0800
50.7000	1063.9375
50.7100	967.1175
50.7200	987.7850
50.7300	1147.3575
50.7400	1043.0325
50.7500	783.3325
50.7600	790.5700
50.7700	1061.6175
50.7800	868.7450
50.7900	947.5350
50.8000	850.8125
50.8100	885.3400
50.8200	965.4775
50.8300	913.5350
50.8400	786.0400
50.8500	898.4725
50.8600	837.4775
50.8700	1015.5500
50.8800	965.1975
50.8900	899.2750
50.9000	868.0975
50.9100	932.2750
50.9200	886.1150
50.9300	1011.5225
50.9400	766.6675
50.9500	770.6650
50.9600	966.6675
50.9700	963.4300
50.9800	803.1875
50.9900	965.7250
51.0000	917.9025
51.0100	983.0300
51.0200	967.5650
51.0300	1015.7825
51.0400	966.6675
51.0500	967.2375
51.0600	999.1575
51.0700	949.7250
51.0800	932.2500
51.0900	868.5300
51.1000	983.5950
51.1100	999.2300
51.1200	949.4975
51.1300	917.9025
51.1400	1000.7275
51.1500	1048.5750
51.1600	948.8350
51.1700	865.7550
51.1800	802.0100
51.1900	951.7475
51.2000	1081.4100
51.2100	934.1700
51.2200	997.7525
51.2300	815.8675
51.2400	752.3375
51.2500	951.3300
51.2600	1065.5550
51.2700	967.3900
51.2800	1032.2775
51.2900	932.3050
51.3000	832.8325
51.3100	783.9800
51.3200	850.9425
51.3300	949.8475
51.3400	932.7425
51.3500	866.8100
51.3600	883.7500
51.3700	933.0650
51.3800	899.2250
51.3900	800.8725
51.4000	915.8275
51.4100	799.8850
51.4200	784.8800
51.4300	1016.6675
51.4400	1016.1600
51.4500	933.2375
51.4600	917.0350
51.4700	982.6350
51.4800	849.6700
51.4900	783.8800
51.5000	899.8525
51.5100	866.4600
51.5200	816.4100
51.5300	750.2975
51.5400	833.6075
51.5500	916.6675
51.5600	916.3000
51.5700	783.5800
51.5800	883.5875
51.5900	1000.0950
51.6000	1049.7825
51.6100	916.5300
51.6200	816.8300
51.6300	966.7200
51.6400	1033.2800
51.6500	933.3200
51.6600	883.3350
51.6700	916.6575
51.6800	866.6950
51.6900	933.2775
51.7000	916.6850
51.7100	866.7350
51.7200	966.5025
51.7300	800.3200
51.7400	966.3000
51.7500	800.4125
51.7600	750.1375
51.7700	899.5475
51.7800	850.1650
51.7900	1182.1475
51.8000	950.8925
51.8100	850.4100
51.8200	733.8425
51.8300	866.0475
51.8400	933.0050
51.8500	983.0750
51.8600	883.8775
51.8700	982.7625
51.8800	950.2000
51.8900	883.7500
51.9000	933.0075
51.9100	900.2275
51.9200	933.0975
51.9300	982.9675
51.9400	884.0925
51.9500	932.9400
51.9600	801.0850
51.9700	733.8925
51.9800	865.5100
51.9900	899.7025
52.0000	833.9475
52.0100	1047.9475
52.0200	1000.4875
52.0300	802.0025
52.0400	865.9825
52.0500	998.5950
52.0600	983.5125
52.0700	867.9575
52.0800	734.8450
52.0900	716.8600
52.1000	831.9500
52.1100	882.7275
52.1200	850.4125
52.1300	850.0000
52.1400	882.9025
52.1500	866.8875
52.1600	1031.0925
52.1700	918.2675
52.1800	850.9325
52.1900	1030.7225
52.2000	934.7825
52.2100	949.7550
52.2200	950.0000
52.2300	900.7650
52.2400	949.2225
52.2500	950.0000
52.2600	884.4050
52.2700	834.1500
52.2800	915.2825
52.2900	851.1250
52.3000	866.3825
52.3100	932.1750
52.3200	1015.1975
52.3300	918.4575
52.3400	867.5750
52.3500	817.5875
52.3600	833.0225
52.3700	898.7375
52.3800	916.3475
52.3900	785.9275
52.4000	914.0375
52.4100	998.3350
52.4200	787.7150
52.4300	962.9100
52.4400	934.0250
52.4500	737.5325
52.4600	880.1450
52.4700	801.7925
52.4800	930.4300
52.4900	1047.4300
52.5000	968.5250
52.5100	966.6675
52.5200	820.0850
52.5300	914.3625
52.5400	884.1100
52.5500	801.9625
52.5600	930.1575
52.5700	1014.6600
52.5800	1016.6675
52.5900	984.1525
52.6000	918.3225
52.6100	819.1750
52.6200	930.3775
52.6300	884.6125
52.6400	899.5700
52.6500	835.0725
52.6600	882.0150
52.6700	802.2175
52.6800	816.2200
52.6900	832.8825
52.7000	833.3325
52.7100	768.5075
52.7200	896.2825
52.7300	1013.3850
52.7400	1049.0550
52.7500	1017.6200
52.7600	838.6275
52.7700	784.7900
52.7800	961.2800
52.7900	901.9750
52.8000	932.3375
52.8100	804.0175
52.8200	816.1600
52.8300	752.0425
52.8400	717.6950
52.8500	829.7025
52.8600	881.7650
52.8700	899.4725
52.8800	867.7300
52.8900	802.1425
52.9000	703.2375
52.9100	861.2300
52.9200	850.5475
52.9300	850.0000
52.9400	866.1100
52.9500	898.8800
52.9600	883.8975
52.9700	947.7275
52.9800	966.0950
52.9900	886.2150
53.0000	963.7625
53.0100	1014.9125
53.0200	888.0450
53.0300	802.9650
53.0400	848.2100
53.0500	817.8700
53.0600	848.7900
53.0700	785.7700
53.0800	767.2800
53.0900	814.8150
53.1000	896.8925
53.1100	948.1225
53.1200	869.8150
53.1300	754.4350
53.1400	814.1150
53.1500	688.4675
53.1600	699.3550
53.1700	924.2375
53.1800	949.3450
53.1900	917.9825
53.2000	820.6375
53.2100	784.6650
53.2200	943.3000
53.2300	918.0150
53.2400	948.6450
53.2500	997.9550
53.2600	936.0775
53.2700	885.4025
53.2800	915.2775
53.2900	868.7600
53.3000	850.7025
53.3100	945.7650
53.3200	981.9125
53.3300	919.5225
53.3400	836.9225
53.3500	849.2775
53.3600	802.1775
53.3700	704.3800
53.3800	986.7900
53.3900	1079.6450
53.4000	971.8600
53.4100	871.1400
53.4200	818.9150
53.4300	768.9275
53.4400	766.6675
53.4500	878.0025
53.4600	899.2350
53.4700	995.3825
53.4800	809.2800
53.4900	768.2200
53.5000	1004.9500
53.5100	969.0225
53.5200	839.6450
53.5300	880.9550
53.5400	962.6825
53.5500	1014.2650
53.5600	937.3575
53.5700	980.9075
53.5800	1062.6050
53.5900	1003.2650
53.6000	936.6150
53.6100	1297.7100
53.6200	1364.1825
53.6300	1255.8225
53.6400	1234.1700
53.6500	1185.8525
53.6600	1262.4500
53.6700	1171.7500
53.6800	1103.4050
53.6900	1147.4350
53.7000	1244.8450
53.7100	1170.9800
53.7200	1324.6650
53.7300	1364.9250
53.7400	1508.7975
53.7500	1800.8575
53.7600	1864.0200
53.7700	1914.0100
53.7800	2169.0975
53.7900	2372.6100
53.8000	2446.4100
53.8100	2639.1850
53.8200	2823.3775
53.8300	3447.8875
53.8400	3877.1825
53.8500	3821.2500
53.8600	4241.8175
53.8700	4376.8650
53.8800	4131.5125
53.8900	4037.9925
53.9000	4237.8375
53.9100	3841.0875
53.9200	3690.8775
53.9300	3416.0975
53.9400	3227.1225
53.9500	3153.8175
53.9600	3071.4575
53.9700	3035.2575
53.9800	3174.6425
53.9900	3057.7550
54.0000	2955.8400
54.0100	2934.3100
54.0200	3043.1350
54.0300	2830.4500
54.0400	2503.0975
54.0500	2546.0325
54.0600	2455.9750
54.0700	2308.9950
54.0800	2174.6925
54.0900	1853.4700
54.1000	1567.1800
54.1100	1628.2625
54.1200	1523.7925
54.1300	1250.7025
54.1400	1327.1800
54.1500	1442.7950
54.1600	1246.7600
54.1700	1092.6625
54.1800	989.5750
54.1900	1061.4475
54.2000	1269.7125
54.2100	1283.3325
54.2200	1174.0525
54.2300	1026.1950
54.2400	1063.4800
54.2500	1097.8675
54.2600	1006.4175
54.2700	875.2550
54.2800	929.0250
54.2900	1042.4350
54.3000	831.8475
54.3100	801.0875
54.3200	831.1500
54.3300	973.4750
54.3400	983.3325
54.3500	983.3325
54.3600	952.2125
54.3700	996.6700
54.3800	813.3625
54.3900	846.6475
54.4000	803.3625
54.4100	939.8800
54.4200	996.6150
54.4300	906.7900
54.4400	729.1550
54.4500	903.0000
54.4600	1009.8125
54.4700	892.5025
54.4800	960.9175
54.4900	1028.7200
54.5000	955.7850
54.5100	872.4700
54.5200	897.6725
54.5300	838.0025
54.5400	957.2975
54.5500	1044.1275
54.5600	988.0475
54.5700	751.0625
54.5800	810.7400
54.5900	801.1900
54.6000	939.2675
54.6100	919.0600
54.6200	994.0025
54.6300	1077.3175
54.6400	882.3550
54.6500	866.6675
54.6600	804.8550
54.6700	846.3475
54.6800	865.4450
54.6900	851.2250
54.7000	942.6325
54.7100	903.6950
54.7200	884.5675
54.7300	914.1900
54.7400	993.7900
54.7500	768.6825
54.7600	873.3400
54.7700	775.4350
54.7800	797.4875
54.7900	861.6275
54.8000	912.8775
54.8100	855.0650
54.8200	896.1900
54.8300	900.0000
54.8400	930.7800
54.8500	964.1050
54.8600	920.5175
54.8700	885.9075
54.8800	791.0775
54.8900	844.8225
54.9000	911.4750
54.9100	962.7625
54.9200	920.5800
54.9300	839.8750
54.9400	971.5300
54.9500	967.9825
54.9600	797.8350
54.9700	844.7125
54.9800	850.0000
54.9900	742.6350
55.0000	794.6725
55.0100	800.0000
55.0200	891.9650
55.0300	976.6225
55.0400	845.4450
55.0500	848.6500
55.0600	727.4875
55.0700	731.9775
55.0800	962.9425
55.0900	1013.9400
55.1000	833.0625
55.1100	724.8850
55.1200	808.4275
55.1300	893.1175
55.1400	900.0000
55.1500	747.1650
55.1600	977.8150
55.1700	847.2325
55.1800	848.6075
55.1900	865.2700
55.2000	988.8000
55.2100	908.4200
55.2200	930.5200
55.2300	887.5625
55.2400	730.8000
55.2500	792.9175
55.2600	876.2325
55.2700	959.5500
55.2800	799.0275
55.2900	798.5700
55.3000	815.2325
55.3100	801.4375
55.3200	739.0925
55.3300	794.2275
55.3400	921.7600
55.3500	1009.4175
55.3600	940.6000
55.3700	811.6525
55.3800	952.0675
55.3900	784.2250
55.4000	888.2675
55.4100	869.6050
55.4200	897.0550
55.4300	839.2400
55.4400	833.3325
55.4500	787.7825
55.4600	722.6125
55.4700	898.7925
55.4800	1038.0575
55.4900	989.3175
55.5000	861.9950
55.5100	971.3125
55.5200	907.5300
55.5300	854.5275
55.5400	925.7725
55.5500	1084.8450
55.5600	1054.5575
55.5700	1095.4350
55.5800	963.7275
55.5900	813.7575
55.6000	860.5400
55.6100	881.7975
55.6200	792.5625
55.6300	904.3350
55.6400	1007.4000
55.6500	986.4300
55.6600	983.3325
55.6700	892.6600
55.6800	913.5525
55.6900	886.4550
55.7000	943.7450
55.7100	919.8000
55.7200	977.0525
55.7300	1043.7075
55.7400	944.3700
55.7500	1054.0275
55.7600	1157.1700
55.7700	1121.4250
55.7800	1071.4350
55.7900	1006.3700
55.8000	1075.3550
55.8100	1188.8075
55.8200	1139.7400
55.8300	952.5950
55.8400	873.1000
55.8500	972.0525
55.8600	953.2300
55.8700	1100.4900
55.8800	1116.6675
55.8900	1056.4950
55.9000	1019.9200
55.9100	1076.8125
55.9200	1143.4675
55.9300	1104.9100
55.9400	1190.1625
55.9500	1245.0725
55.9600	1340.1250
55.9700	1244.8750
55.9800	1158.2600
55.9900	1044.9200
56.0000	1078.3575
56.0100	1218.3800
56.0200	1353.3500
56.0300	1501.6575
56.0400	1306.7225
56.0500	1388.2825
56.0600	1429.9800
56.0700	1523.2525
56.0800	1443.4325
56.0900	1658.0425
56.1000	1758.2200
56.1100	1736.7175
56.1200	1883.0475
56.1300	1974.8425
56.1400	2043.1950
56.1500	1975.1900
56.1600	1951.7075
56.1700	1875.2200
56.1800	2061.0575
56.1900	2113.2325
56.2000	2191.4025
56.2100	2394.2725
56.2200	2595.9575
56.2300	2422.4750
56.2400	2698.6975
56.2500	2733.3325
56.2600	2867.6925
56.2700	3360.9600
56.2800	3595.7400
56.2900	3944.9025
56.3000	4266.7525
56.3100	4449.1375
56.3200	4809.6150
56.3300	5714.6500
56.3400	6532.0950
56.3500	7197.8350
56.3600	7937.1125
56.3700	8806.1425
56.3800	9808.4625
56.3900	11018.5150
56.4000	12638.6850
56.4100	13932.9575
56.4200	16417.8500
56.4300	18098.5250
56.4400	20140.9125
56.4500	22017.4600
56.4600	22499.1775
56.4700	23083.3775
56.4800	23179.7275
56.4900	23183.3325
56.5000	20583.3175
56.5100	19315.9925
56.5200	18680.2025
56.5300	17725.7625
56.5400	16532.9475
56.5500	15257.1250
56.5600	14923.7525
56.5700	15196.7350
56.5800	14758.6525
56.5900	14447.8750
56.6000	14387.0100
56.6100	14650.1825
56.6200	14209.0250
56.6300	13468.3175
56.6400	13116.6400
56.6500	12283.4100
56.6600	11265.0825
56.6700	10024.6225
56.6800	9217.1225
56.6900	8274.8300
56.7000	7337.9275
56.7100	6567.5125
56.7200	5980.3675
56.7300	5458.1675
56.7400	4926.8050
56.7500	4363.9925
56.7600	3826.9875
56.7700	3500.6500
56.7800	3333.6825
56.7900	3124.6175
56.8000	2878.4475
56.8100	2776.1625
56.8200	2663.3150
56.8300	2192.3900
56.8400	2118.5750
56.8500	2101.9100
56.8600	2011.4825
56.8700	2073.7500
56.8800	2053.8375
56.8900	1755.1100
56.9000	1731.4075
56.9100	1585.9450
56.9200	1640.3475
56.9300	1532.1350
56.9400	1354.6325
56.9500	1333.3325
56.9600	1244.9850
56.9700	1277.5000
56.9800	1268.6150
56.9900	1354.9650
57.0000	1351.9525
57.0100	1099.9175
57.0200	1081.3750
57.0300	1318.6150
57.0400	1276.4875
57.0500	1251.9675
57.0600	1264.6975
57.0700	1060.9500
57.0800	989.2600
57.0900	1071.4650
57.1000	995.2200
57.1100	1056.7475
57.1200	1066.6675
57.1300	949.2475
57.1400	918.6600
57.1500	843.3075
57.1600	1009.3625
57.1700	1033.3325
57.1800	1047.9975
57.1900	1123.3050
57.2000	957.4375
57.2100	904.0225
57.2200	841.3900
57.2300	1009.1300
57.2400	1033.3325
57.2500	886.8900
57.2600	764.1750
57.2700	823.1950
57.2800	994.3300
57.2900	855.7000
57.3000	847.9650
57.3100	923.1400
57.3200	889.4575
57.3300	883.3325
57.3400	868.7125
57.3500	998.2200
57.3600	841.2950
57.3700	904.3375
57.3800	989.7125
57.3900	868.5425
57.4000	850.0000
57.4100	966.8075
57.4200	983.3325
57.4300	924.9525
57.4400	858.2950
57.4500	864.5900
57.4600	822.9050
57.4700	845.8350
57.4800	777.0900
57.4900	766.6675
57.5000	824.9725
57.5100	731.3150
57.5200	789.5225
57.5300	741.7250
57.5400	733.3325
57.5500	864.4050
57.5600	868.7725
57.5700	924.9000
57.5800	787.7800
57.5900	868.5350
57.6000	839.6825
57.6100	833.3325
57.6200	833.3325
57.6300	833.3325
57.6400	833.3325
57.6500	760.6500
57.6600	822.6725
57.6700	862.3975
57.6800	953.8400
57.6900	864.9825
57.7000	719.2850
57.7100	729.0425
57.7200	849.4825
57.7300	837.6350
57.7400	847.8475
57.7500	719.4050
57.7600	758.0325
57.7700	868.2050
57.7800	868.8300
57.7900	895.6675
57.8000	769.5200
57.8100	807.9800
57.8200	816.6675
57.8300	758.7075
57.8400	807.9500
57.8500	744.2425
57.8600	747.8150
57.8700	778.9600
57.8800	725.4250
57.8900	875.8850
57.9000	871.0575
57.9100	939.0125
57.9200	877.6675
57.9300	779.8825
57.9400	810.0500
57.9500	700.9950
57.9600	784.5275
57.9700	886.7225
57.9800	885.5500
57.9900	738.8475
58.0000	745.5600
58.0100	793.3300
58.0200	670.0300
58.0300	823.2625
58.0400	893.3075
58.0500	755.6675
58.0600	747.7650
58.0700	778.8575
58.0800	639.0750
58.0900	746.4750
58.1000	853.1900
58.1100	722.4850
58.1200	815.3250
58.1300	905.4000
58.1400	830.2025
58.1500	787.8500
58.1600	898.5775
58.1700	859.0550
58.1800	821.2000
58.1900	744.6775
58.2000	834.1025
58.2100	778.0350
58.2200	752.2750
58.2300	778.7750
58.2400	840.8750
58.2500	893.1500
58.2600	727.4350
58.2700	714.3775
58.2800	889.1725
58.2900	887.9200
58.3000	912.0750
58.3100	887.9300
58.3200	811.5050
58.3300	742.5475
58.3400	776.4150
58.3500	711.5425
58.3600	728.7100
58.3700	733.3325
58.3800	704.6325
58.3900	656.9550
58.4000	693.0375
58.4100	671.3125
58.4200	637.9850
58.4300	618.9950
58.4400	760.0250
58.4500	855.0000
58.4600	709.0275
58.4700	669.0050
58.4800	695.3175
58.4900	628.3825
58.5000	659.6300
58.5100	824.1725
58.5200	807.0525
58.5300	800.0000
58.5400	771.3775
58.5500	752.3575
58.5600	850.1450
58.5700	838.0575
58.5800	833.3325
58.5900	933.4275
58.6000	778.4400
58.6100	821.4725
58.6200	761.8750
58.6300	649.9725
58.6400	761.9175
58.6500	883.3250
58.6600	742.8950
58.6700	745.2275
58.6800	849.9425
58.6900	852.3925
58.7000	764.3650
58.7100	792.8100
58.7200	714.3925
58.7300	657.2050
58.7400	721.3150
58.7500	747.5950
58.7600	721.4825
58.7700	702.4100
58.7800	685.7475
58.7900	626.3300
58.8000	744.9050
58.8100	666.9425
58.8200	721.2200
58.8300	719.0925
58.8400	802.1000
58.8500	802.4300
58.8600	757.2975
58.8700	778.4650
58.8800	769.1050
58.8900	766.6675
58.9000	823.5650
58.9100	762.2200
58.9200	735.7800
58.9300	847.0750
58.9400	838.2350
58.9500	804.9075
58.9600	785.7900
58.9700	797.5425
58.9800	814.2050
58.9900	802.4625
59.0000	856.8050
59.0100	781.4725
59.0200	695.6850
59.0300	782.6925
59.0400	743.2325
59.0500	733.3325
59.0600	761.7075
59.0700	851.7750
59.0800	767.3900
59.0900	835.0800
59.1000	736.5775
59.1100	730.8425
59.1200	761.6800
59.1300	709.9825
59.1400	770.8425
59.1500	712.5025
59.1600	770.8200
59.1700	811.6550
59.1800	901.6225
59.1900	803.4125
59.2000	712.5600
59.2100	742.4575
59.2200	806.6000
59.2300	830.8150
59.2400	706.0275
59.2500	655.0475
59.2600	748.9850
59.2700	837.3575
59.2800	765.1850
59.2900	665.1975
59.3000	678.2625
59.3100	683.3325
59.3200	768.0950
59.3300	797.4575
59.3400	814.1225
59.3500	760.1875
59.3600	778.2350
59.3700	712.7575
59.3800	728.2250
59.3900	817.9975
59.4000	833.3325
59.4100	861.5450
59.4200	810.2500
59.4300	701.2900
59.4400	683.3325
59.4500	697.4300
59.4600	700.0000
59.4700	784.5550
59.4800	771.8200
59.4900	653.9625
59.5000	675.5900
59.5100	810.0850
59.5200	819.2525
59.5300	760.3525
59.5400	679.6175
59.5500	666.6675
59.5600	737.0275
59.5700	735.9300
59.5800	677.0625
59.5900	554.1450
59.6000	673.9625
59.6100	643.7575
59.6200	633.3325
59.6300	619.2775
59.6400	672.8825
59.6500	725.4875
59.6600	719.2850
59.6700	604.2875
59.6800	681.6475
59.6900	728.0850
59.7000	803.5350
59.7100	788.5900
59.7200	727.1900
59.7300	800.8700
59.7400	872.7925
59.7500	827.2150
59.7600	816.6675
59.7700	634.3425
59.7800	656.0900
59.7900	764.8100
59.8000	811.3700
59.8100	788.6350
59.8200	657.2100
59.8300	591.2975
59.8400	751.4450
59.8500	825.3550
59.8600	749.3050
59.8700	663.3200
59.8800	551.9975
59.8900	701.3125
59.9000	817.3100
59.9100	637.4200
59.9200	558.0250
59.9300	731.8625
59.9400	780.6550
59.9500	685.4375
59.9600	680.6500
59.9700	641.3925
59.9800	661.2900
59.9900	792.4525
60.0000	844.6150
60.0100	766.1700
60.0200	736.0300
60.0300	747.3000
60.0400	596.3825
60.0500	608.5550
60.0600	658.5500
60.0700	638.7500
60.0800	786.8525
60.0900	593.4000
60.1000	619.7600
60.1100	758.8825
60.1200	783.3325
60.1300	755.4425
60.1400	750.0000
60.1500	791.8225
60.1600	786.0600
60.1700	727.5875
60.1800	688.7975
60.1900	683.3325
60.2000	641.5425
60.2100	689.0450
60.2200	741.7775
60.2300	805.6950
60.2400	816.6675
60.2500	719.2325
60.2600	727.8350
60.2700	747.2475
60.2800	777.8250
60.2900	713.7800
60.3000	588.7325
60.3100	677.9175
60.3200	713.9050
60.3300	688.8625
60.3400	683.3325
60.3500	683.3325
60.3600	697.2300
60.3700	658.3200
60.3800	677.7825
60.3900	613.8875
60.4000	600.0000
60.4100	655.5400
60.4200	708.3150
60.4300	675.0250
60.4400	652.7875
60.4500	691.6275
60.4600	672.2525
60.4700	611.1800
60.4800	710.9575
60.4900	705.5975
60.5000	602.9425
60.5100	708.1025
60.5200	733.3325
60.5300	650.1800
60.5400	688.7600
60.5500	769.2750
60.5600	797.1850
60.5700	883.1025
60.5800	844.6075
60.5900	791.7950
60.6000	838.7100
60.6100	725.4225
60.6200	616.9600
60.6300	710.7025
60.6400	691.8275
60.6500	669.5000
60.6600	583.6800
60.6700	621.9825
60.6800	813.0850
60.6900	794.7000
60.7000	755.6875
60.7100	736.1800
60.7200	636.6025
60.7300	699.5650
60.7400	633.7800
60.7500	658.1025
60.7600	666.6675
60.7700	680.4750
60.7800	710.9450
60.7900	758.0775
60.8000	808.0725
60.8100	816.6675
60.8200	775.2750
60.8300	766.6675
60.8400	780.4600
60.8500	755.7500
60.8600	818.9450
60.8700	764.4000
60.8800	639.7225
60.8900	685.5800
60.9000	782.6825
60.9100	772.4425
60.9200	752.8900
60.9300	763.7750
60.9400	711.5775
60.9500	796.3900
60.9600	775.3625
60.9700	835.4950
60.9800	712.3625
60.9900	697.0950
61.0000	713.7600
61.0100	730.4250
61.0200	747.0875
61.0300	818.7675
61.0400	792.0800
61.0500	742.0850
61.0600	664.5975
61.0700	704.9800
61.0800	634.2100
61.0900	767.8150
61.1000	758.7850
61.1100	763.7375
61.1200	725.4625
61.1300	675.4700
61.1400	680.3975
61.1500	683.3325
61.1600	765.6900
61.1700	728.4375
61.1800	702.9450
61.1900	672.5600
61.2000	762.6925
61.2100	742.1850
61.2200	747.0475
61.2300	667.7300
61.2400	691.1275
61.2500	754.8300
61.2600	821.4875
61.2700	737.4100
61.2800	689.2650
61.2900	655.9350
61.3000	650.0000
61.3100	704.7800
61.3200	593.4300
61.3300	635.1200
61.3400	595.2450
61.3500	706.5125
61.3600	829.1250
61.3700	658.4450
61.3800	644.0275
61.3900	745.7500
61.4000	821.3725
61.4100	682.9175
61.4200	608.9825
61.4300	600.0000
61.4400	641.0050
61.4500	636.3350
61.4600	619.6700
61.4700	562.0200
61.4800	700.2575
61.4900	774.3075
61.5000	633.1200
61.5100	722.8825
61.5200	790.9550
61.5300	690.8050
61.5400	680.3150
61.5500	806.1425
61.5600	806.0475
61.5700	718.1525
61.5800	713.6400
61.5900	703.0300
61.6000	740.9050
61.6100	668.2025
61.6200	554.5825
61.6300	655.9925
61.6400	642.4525
61.6500	565.2100
61.6600	699.8500
61.6700	801.4375
61.6800	639.6250
61.6900	613.6175
61.7000	698.3550
61.7100	621.3800
61.7200	586.3900
61.7300	637.7675
61.7400	718.0325
61.7500	760.5425
61.7600	766.6675
61.7700	753.0675
61.7800	695.6075
61.7900	724.1225
61.8000	746.9275
61.8100	654.8550
61.8200	687.6925
61.8300	632.0600
61.8400	738.9400
61.8500	793.8350
61.8600	704.9275
61.8700	642.5950
61.8800	633.3325
61.8900	728.3625
61.9000	722.8525
61.9100	594.5225
61.9200	648.0850
61.9300	720.9375
61.9400	611.2450
61.9500	664.7150
61.9600	805.3850
61.9700	860.4525
61.9800	758.2075
61.9900	692.6675
62.0000	534.2475
62.0100	554.2050
62.0200	688.6100
62.0300	567.6475
62.0400	614.6025
62.0500	660.4200
62.0600	666.6675
62.0700	626.0500
62.0800	711.4250
62.0900	733.3325
62.1000	733.3325
62.1100	787.4575
62.1200	786.4725
62.1300	729.2275
62.1400	730.1925
62.1500	692.7650
62.1600	629.2500
62.1700	535.5550
62.1800	665.3475
62.1900	754.0575
62.2000	618.0300
62.2100	542.8025
62.2200	749.4675
62.2300	732.4675
62.2400	662.6500
62.2500	636.4975
62.2600	727.8350
62.2700	830.9900
62.2800	688.0450
62.2900	784.9425
62.3000	843.6500
62.3100	701.6100
62.3200	666.6675
62.3300	639.6950
62.3400	646.8175
62.3500	663.4825
62.3600	639.7075
62.3700	822.0250
62.3800	651.0525
62.3900	613.4750
62.4000	684.0250
62.4100	686.5300
62.4200	723.7375
62.4300	733.3325
62.4400	800.6525
62.4500	816.6675
62.4600	601.3125
62.4700	590.3725
62.4800	721.1000
62.4900	857.6275
62.5000	789.1725
62.5100	753.2175
62.5200	709.6575
62.5300	646.2175
62.5400	566.1175
62.5500	617.2075
62.5600	633.3325
62.5700	727.3950
62.5800	615.6475
62.5900	757.9650
62.6000	773.1375
62.6100	753.2375
62.6200	750.0000
62.6300	723.1500
62.6400	716.6675
62.6500	877.7200
62.6600	822.7325
62.6700	706.0800
62.6800	683.3325
62.6900	723.5725
62.7000	786.9775
62.7100	759.7725
62.7200	750.0000
62.7300	696.3800
62.7400	763.7500
62.7500	796.7350
62.7600	840.1975
62.7700	783.0175
62.7800	753.2725
62.7900	803.5700
62.8000	709.5425
62.8100	643.1675
62.8200	820.7450
62.8300	786.3600
62.8400	780.0500
62.8500	863.6175
62.8600	829.8200
62.8700	696.2800
62.8800	626.5425
62.8900	630.0400
62.9000	619.9625
62.9100	549.8250
62.9200	666.9950
62.9300	753.4575
62.9400	713.2175
62.9500	646.5600
62.9600	686.7650
62.9700	646.5750
62.9800	646.6875
62.9900	730.1125
63.0000	830.1000
63.0100	943.4350
63.0200	819.8600
63.0300	729.9575
63.0400	596.5900
63.0500	539.9875
63.0600	613.3600
63.0700	686.6775
63.0800	740.0025
63.0900	603.3500
63.1000	673.3050
63.1100	753.3100
63.1200	700.0375
63.1300	670.0100
63.1400	773.2400
63.1500	760.0425
63.1600	643.4600
63.1700	656.6125
63.1800	693.2925
63.1900	620.1325
63.2000	466.9075
63.2100	619.6350
63.2200	626.7500
63.2300	802.9125
63.2400	810.0975
63.2500	813.3000
63.2600	829.9650
63.2700	820.0375
63.2800	776.7875
63.2900	726.7925
63.3000	743.2450
63.3100	816.4350
63.3200	793.4775
63.3300	783.3325
63.3400	836.4575
63.3500	823.4425
63.3600	763.5600
63.3700	842.9225
63.3800	866.6675
63.3900	694.1475
63.4000	663.2675
63.4100	772.8000
63.4200	680.6200
63.4300	663.2625
63.4400	759.4900
63.4500	703.7825
63.4600	643.5650
63.4700	739.3675
63.4800	713.6575
63.4900	686.7500
63.5000	749.5750
63.5100	713.6825
63.5200	832.4400
63.5300	813.6975
63.5400	680.8400
63.5500	663.2375
63.5600	719.6100
63.5700	746.5675
63.5800	630.9150
63.5900	560.3100
63.6000	589.6825
63.6100	652.9025
63.6200	746.0075
63.6300	806.3300
63.6400	777.0075
63.6500	674.1450
63.6600	650.0000
63.6700	729.2800
63.6800	683.9450
63.6900	679.8750
63.7000	788.9900
63.7100	645.0000
63.7200	652.8125
63.7300	653.4650
63.7400	663.2000
63.7500	759.0450
63.7600	809.7225
63.7700	737.5100
63.7800	650.7125
63.7900	712.4650
63.8000	693.7725
63.8100	683.3325
63.8200	736.0625
63.8300	723.6400
63.8400	795.7375
63.8500	882.5475
63.8600	900.0000
63.8700	886.8275
63.8800	685.7825
63.8900	606.9975
63.9000	665.8300
63.9100	814.9725
63.9200	784.1900
63.9300	740.3475
63.9400	680.7025
63.9500	666.6675
63.9600	745.5875
63.9700	924.4850
63.9800	900.9200
63.9900	791.3025
64.0000	858.6825
64.0100	896.4775
64.0200	886.8600
64.0300	765.0825
64.0400	838.4275
64.0500	866.6675
64.0600	774.7375
64.0700	802.5225
64.0800	895.4375
64.0900	929.7925
64.1000	788.9650
64.1100	658.1425
64.1200	738.2950
64.1300	832.2575
64.1400	784.4200
64.1500	858.4650
64.1600	870.2225
64.1700	801.1175
64.1800	822.6575
64.1900	820.2275
64.2000	777.3550
64.2100	845.2750
64.2200	866.6675
64.2300	761.8875
64.2400	772.6200
64.2500	744.0550
64.2600	824.9700
64.2700	810.7325
64.2800	904.6950
64.2900	933.3325
64.3000	946.4150
64.3100	779.9525
64.3200	824.8825
64.3300	850.0000
64.3400	863.0750
64.3500	775.1600
64.3600	710.7900
64.3700	700.0000
64.3800	726.1325
64.3900	759.4600
64.4000	818.9125
64.4100	820.2725
64.4200	764.4375
64.4300	854.4425
64.4400	726.6925
64.4500	644.1800
64.4600	829.0700
64.4700	805.0525
64.4800	744.1975
64.4900	850.7175
64.5000	883.3325
64.5100	831.1800
64.5200	829.7025
64.5300	859.4025
64.5400	775.4400
64.5500	828.1800
64.5600	902.1125
64.5700	877.5900
64.5800	918.7625
64.5900	920.3125
64.6000	877.6075
64.6100	827.6150
64.6200	803.6525
64.6300	839.0400
64.6400	863.0100
64.6500	840.6500
64.6600	729.2800
64.6700	765.0225
64.6800	835.3425
64.6900	758.9975
64.7000	837.3200
64.7100	892.6600
64.7200	874.0125
64.7300	814.7000
64.7400	812.9900
64.7500	816.6675
64.7600	608.9000
64.7700	679.8325
64.7800	729.6475
64.7900	811.2075
64.8000	846.3100
64.8100	785.1250
64.8200	766.6675
64.8300	740.7250
64.8400	811.1425
64.8500	833.3325
64.8600	794.4400
64.8700	835.1800
64.8800	927.7575
64.8900	885.2125
64.9000	763.0225
64.9100	681.5200
64.9200	653.7150
64.9300	779.4900
64.9400	842.5600
64.9500	850.0000
64.9600	862.9425
64.9700	918.4275
64.9800	842.7650
64.9900	842.5400
65.0000	785.3300
65.0100	870.1200
65.0200	951.7175
65.0300	914.9575
65.0400	822.4475
65.0500	748.3075
65.0600	720.4125
65.0700	923.3675
65.0800	983.3325
65.0900	841.2750
65.1000	787.0875
65.1100	770.4225
65.1200	869.9300
65.1300	874.1875
65.1400	944.0875
65.1500	979.5675
65.1600	1034.9300
65.1700	1037.1025
65.1800	1007.5425
65.1900	883.9650
65.2000	940.2325
65.2100	953.7775
65.2200	821.1400
65.2300	834.8700
65.2400	888.6450
65.2500	874.2400
65.2600	840.9125
65.2700	884.8350
65.2800	887.1275
65.2900	921.9450
65.3000	959.0700
65.3100	979.5325
65.3200	944.7400
65.3300	894.7475
65.3400	883.3325
65.3500	934.7625
65.3600	834.3025
65.3700	800.0000
65.3800	864.2550
65.3900	1011.8200
65.4000	1050.0000
65.4100	985.7775
65.4200	902.4550
65.4300	947.5325
65.4400	1069.3675
65.4500	1215.5200
65.4600	1108.8350
65.4700	951.1875
65.4800	916.6675
65.4900	1006.4525
65.5000	982.0350
65.5100	953.8450
65.5200	898.7200
65.5300	896.1500
65.5400	900.0000
65.5500	938.4400
65.5600	988.4325
65.5700	987.1925
65.5800	1060.1725
65.5900	1134.5500
65.6000	1073.1875
65.6100	986.0000
65.6200	915.4775
65.6300	1040.7475
65.6400	1134.5050
65.6500	1226.7450
65.6600	1186.0575
65.6700	1153.8800
65.6800	1150.0000
65.6900	1073.3100
65.7000	1075.5600
65.7100	1198.3300
65.7200	1284.4325
65.7300	1376.6375
65.7400	1221.2125
65.7500	1217.7400
65.7600	1463.1225
65.7700	1380.1675
65.7800	1473.7100
65.7900	1644.2600
65.8000	1683.3325
65.8100	1721.5975
65.8200	1656.8175
65.8300	1735.3350
65.8400	1817.6575
65.8500	1858.8250
65.8600	1879.4100
65.8700	1768.6625
65.8800	1835.2425
65.8900	2070.4500
65.9000	2120.6000
65.9100	2078.4700
65.9200	2130.3150
65.9300	2277.2725
65.9400	2240.3150
65.9500	2178.4975
65.9600	2471.9600
65.9700	2655.6950
65.9800	2746.9125
65.9900	2906.5175
66.0000	2759.3300
66.0100	2788.9625
66.0200	3032.6800
66.0300	3087.2950
66.0400	3248.4600
66.0500	3515.8975
66.0600	3672.2150
66.0700	3915.8175
66.0800	4541.8200
66.0900	5122.7650
66.1000	5732.1525
66.1100	6149.7375
66.1200	6563.1075
66.1300	7440.2250
66.1400	8646.9350
66.1500	10040.1925
66.1600	11473.3250
66.1700	12741.7225
66.1800	14363.6500
66.1900	15872.7250
66.2000	18154.4150
66.2100	20298.8525
66.2200	22479.8200
66.2300	24940.6850
66.2400	26701.6675
66.2500	28901.4000
66.2600	31064.7075
66.2700	32578.5600
66.2800	33393.2050
66.2900	32285.6050
66.3000	30290.4900
66.3100	27609.3800
66.3200	24035.4525
66.3300	20817.1775
66.3400	18592.7325
66.3500	17118.9100
66.3600	15688.7825
66.3700	14727.3275
66.3800	14621.6925
66.3900	14864.5475
66.4000	14945.9525
66.4100	14558.9150
66.4200	15366.7175
66.4300	16435.9325
66.4400	16809.4200
66.4500	16560.0575
66.4600	16882.5925
66.4700	17407.3100
66.4800	16626.2025
66.4900	15023.2825
66.5000	13277.6025
66.5100	11993.7525
66.5200	10294.0550
66.5300	8436.1650
66.5400	7140.1575
66.5500	5998.4875
66.5600	5175.7300
66.5700	4547.2100
66.5800	3896.9950
66.5900	3456.7325
66.6000	3090.1200
66.6100	2861.7525
66.6200	2816.6675
66.6300	2464.9000
66.6400	2626.3350
66.6500	2540.8500
66.6600	2232.2150
66.6700	2024.4650
66.6800	2020.9875
66.6900	2083.5275
66.7000	1849.0775
66.7100	1829.3850
66.7200	1875.0825
66.7300	1883.3325
66.7400	1745.4325
66.7500	1599.7275
66.7600	1466.4150
66.7700	1333.1000
66.7800	1500.4275
66.7900	1516.5700
66.8000	1437.3900
66.8100	1278.9525
66.8200	1245.8500
66.8300	1312.5725
66.8400	1145.6525
66.8500	1133.3725
66.8600	1287.5775
66.8700	1258.3050
66.8800	1370.8575
66.8900	1354.1675
66.9000	1233.3550
66.9100	1237.4850
66.9200	1237.5075
66.9300	1233.3325
66.9400	1208.3575
66.9500	1100.1200
66.9600	1004.2550
66.9700	1020.7725
66.9800	995.9000
66.9900	1045.7075
67.0000	979.3575
67.0100	999.8800
67.0200	1041.6025
67.0300	937.8150
67.0400	974.7750
67.0500	987.5400
67.0600	1058.0800
67.0700	1120.6975
67.0800	1095.9750
67.0900	946.3825
67.1000	962.2375
67.1100	983.3325
67.1200	821.5800
67.1300	791.5475
67.1400	849.7500
67.1500	966.1475
67.1600	937.8375
67.1700	941.5275
67.1800	1012.1375
67.1900	1033.3325
67.2000	996.0650
67.2100	970.9125
67.2200	916.9975
67.2300	875.1700
67.2400	941.1400
67.2500	929.4375
67.2600	1102.7750
67.2700	1005.4050
67.2800	950.0000
67.2900	850.8025
67.3000	891.0500
67.3100	953.8500
67.3200	1003.8425
67.3300	1004.2775
67.3400	962.8400
67.3500	987.1525
67.3600	913.3275
67.3700	895.7125
67.3800	875.2475
67.3900	829.5450
67.4000	853.7800
67.4100	990.3550
67.4200	922.0375
67.4300	870.9700
67.4400	891.3900
67.4500	900.0000
67.4600	838.2200
67.4700	841.3725
67.4800	874.7025
67.4900	920.3775
67.5000	1032.0975
67.5100	881.5200
67.5200	767.3050
67.5300	824.0275
67.5400	911.6750
67.5500	822.3400
67.5600	771.0025
67.5700	852.9575
67.5800	895.6575
67.5900	961.6100
67.6000	958.6950
67.6100	876.0975
67.6200	788.4275
67.6300	852.8475
67.6400	932.5700
67.6500	962.3075
67.6600	1028.1850
67.6700	1013.0975
67.6800	852.4175
67.6900	898.3675
67.7000	1019.3850
67.7100	951.6750
67.7200	904.3775
67.7300	850.8600
67.7400	808.7675
67.7500	800.0000
67.7600	763.1675
67.7700	774.5500
67.7800	734.2450
67.7900	778.0125
67.8000	836.8000
67.8100	862.2650
67.8200	780.8375
67.8300	786.7750
67.8400	861.2800
67.8500	883.3325
67.8600	822.0800
67.8700	726.5125
67.8800	748.9800
67.8900	693.2100
67.9000	801.3050
67.9100	788.8150
67.9200	840.0725
67.9300	952.2900
67.9400	836.5850
67.9500	746.6550
67.9600	806.6750
67.9700	882.2175
67.9800	790.0350
67.9900	664.4900
68.0000	718.8225
68.0100	859.8900
68.0200	765.7175
68.0300	728.8725
68.0400	794.3425
68.0500	780.0700
68.0600	791.0600
68.0700	885.3575
68.0800	880.0925
68.0900	842.2900
68.1000	748.0350
68.1100	814.1300
68.1200	910.9000
68.1300	848.0925
68.1400	755.7950
68.1500	733.3325
68.1600	745.5025
68.1700	798.6650
68.1800	768.0125
68.1900	774.3225
68.2000	892.7550
68.2100	811.7825
68.2200	754.5150
68.2300	786.4500
68.2400	836.4400
68.2500	850.0000
68.2600	850.0000
68.2700	825.7225
68.2800	816.6675
68.2900	816.6675
68.3000	695.3650
68.3100	674.2550
68.3200	780.3300
68.3300	695.4500
68.3400	783.3075
68.3500	748.5200
68.3600	716.6675
68.3700	752.9975
68.3800	851.4200
68.3900	871.2275
68.4000	794.0550
68.4100	766.6675
68.4200	863.4375
68.4300	912.0925
68.4400	735.3075
68.4500	715.0175
68.4600	721.2475
68.4700	789.1600
68.4800	792.5075
68.4900	795.4100
68.5000	812.0725
68.5100	671.8175
68.5200	652.8700
68.5300	920.0325
68.5400	944.2925
68.5500	844.3100
68.5600	949.2875
68.5700	903.5725
68.5800	806.4125
68.5900	807.4300
68.6000	876.8925
68.6100	815.7050
68.6200	771.2950
68.6300	742.5950
68.6400	697.2325
68.6500	743.4850
68.6600	742.6125
68.6700	697.2600
68.6800	731.4200
68.6900	786.0575
68.7000	908.1425
68.7100	877.9225
68.7200	813.9700
68.7300	691.9350
68.7400	806.0550
68.7500	770.6550
68.7600	781.3275
68.7700	788.0050
68.7800	747.3550
68.7900	829.2500
68.8000	854.6800
68.8100	826.0325
68.8200	852.6100
68.8300	806.7775
68.8400	687.5350
68.8500	781.6925
68.8600	833.3325
68.8700	797.4350
68.8800	699.5925
68.8900	726.4675
68.9000	809.7850
68.9100	785.5175
68.9200	862.2775
68.9300	840.2600
68.9400	756.9400
68.9500	757.2175
68.9600	898.0000
68.9700	818.7000
68.9800	754.7325
68.9900	738.0700
69.0000	697.5525
69.0100	790.6525
69.0200	869.0975
69.0300	907.1700
69.0400	904.7525
69.0500	983.3850
69.0600	909.4825
69.0700	759.5100
69.0800	788.0850
69.0900	816.6675
69.1000	780.9750
69.1100	671.5150
69.1200	811.7000
69.1300	823.8925
69.1400	823.7700
69.1500	809.5700
69.1600	835.6375
69.1700	766.8700
69.1800	721.4600
69.1900	728.5375
69.2000	709.6000
69.2100	723.7275
69.2200	709.6125
69.2300	818.5750
69.2400	795.5400
69.2500	790.3700
69.2600	776.3025
69.2700	814.0475
69.2800	809.6500
69.2900	776.3225
69.3000	778.5025
69.3100	783.3325
69.3200	724.1850
69.3300	747.3075
69.3400	754.8425
69.3500	738.1800
69.3600	851.5075
69.3700	758.2300
69.3800	711.8100
69.3900	728.4750
69.4000	780.5525
69.4100	729.1900
69.4200	664.6050
69.4300	732.5675
69.4400	743.0825
69.4500	780.4900
69.4600	835.3575
69.4700	885.3500
69.4800	841.1000
69.4900	769.5600
69.5000	750.0000
69.5100	761.7700
69.5200	801.9675
69.5300	851.9600
69.5400	807.8625
69.5500	724.5450
69.5600	723.5100
69.5700	803.8425
69.5800	903.8225
69.5900	886.3525
69.6000	831.4400
69.6100	828.4050
69.6200	856.8050
69.6300	761.0750
69.6400	622.8325
69.6500	712.3200
69.6600	825.2800
69.6700	932.0375
69.6800	966.6675
69.6900	849.5325
69.7000	776.5800
69.7100	754.9600
69.7200	785.1125
69.7300	800.0000
69.7400	800.0000
69.7500	823.3875
69.7600	856.7150
69.7700	819.9150
69.7800	788.3150
69.7900	736.6075
69.8000	868.4825
69.8100	921.6575
69.8200	694.9050
69.8300	635.0050
69.8400	708.3250
69.8500	768.3200
69.8600	678.4050
69.8700	738.2325
69.8800	864.9000
69.8900	888.3500
69.9000	860.0425
69.9100	850.0000
69.9200	815.0825
69.9300	730.1825
69.9400	734.8975
69.9500	808.1475
69.9600	786.8275
69.9700	662.0575
69.9800	744.4850
69.9900	858.0825
70.0000	778.8125
70.0100	779.7725
70.0200	718.7525
70.0300	741.3500
70.0400	673.8650
70.0500	679.7225
70.0600	885.5000
70.0700	943.4850
70.0800	782.7000
70.0900	763.0025
70.1000	737.0100
70.1100	797.7075
70.1200	821.7600
70.1300	770.3825
70.1400	807.8375
70.1500	844.8975
70.1600	861.5600
70.1700	820.4350
70.1800	800.0000
70.1900	776.8975
70.2000	778.2150
70.2100	794.8775
70.2200	753.8350
70.2300	675.6425
70.2400	684.6050
70.2500	688.4675
70.2600	717.9175
70.2700	756.3825
70.2800	697.5375
70.2900	678.1850
70.3000	683.3325
70.3100	671.8225
70.3200	793.2575
70.3300	815.4850
70.3400	811.5025
70.3500	805.1675
70.3600	754.0200
70.3700	767.8075
70.3800	806.3100
70.3900	782.2125
70.4000	870.0025
70.4100	813.3625
70.4200	732.2425
70.4300	705.1950
70.4400	688.5325
70.4500	671.8675
70.4600	689.5900
70.4700	734.3750
70.4800	750.0000
70.4900	795.8075
70.5000	954.0475
70.5100	856.4375
70.5200	771.8925
70.5300	778.1050
70.5400	737.5925
70.5500	682.3725
70.5600	712.3800
70.5700	744.7575
70.5800	647.2050
70.5900	657.0900
70.6000	763.2375
70.6100	765.7650
70.6200	852.6725
70.6300	797.3575
70.6400	807.0075
70.6500	833.3325
70.6600	821.9375
70.6700	805.2750
70.6800	800.0000
70.6900	788.6150
70.7000	669.5200
70.7100	662.1775
70.7200	660.5850
70.7300	661.3700
70.7400	689.4025
70.7500	688.6350
70.7600	740.1400
70.7700	868.8875
70.7800	916.6675
70.7900	950.7200
70.8000	875.8850
70.8100	776.6125
70.8200	761.3400
70.8300	800.6800
70.8400	850.6700
70.8500	844.0050
70.8600	686.0775
70.8700	627.9900
70.8800	757.8600
70.8900	805.3500
70.9000	845.2550
70.9100	776.1825
70.9200	733.3325
70.9300	744.6375
70.9400	761.3000
70.9500	698.8850
70.9600	655.3725
70.9700	706.4500
70.9800	665.6125
70.9900	667.1825
71.0000	762.2950
71.0100	732.3400
71.0200	767.6400
71.0300	901.4300
71.0400	871.1350
71.0500	698.1750
71.0600	779.7100
71.0700	804.9750
71.0800	760.8275
71.0900	828.7475
71.1000	776.6975
71.1100	733.3325
71.1200	688.3750
71.1300	846.4425
71.1400	787.3100
71.1500	660.5200
71.1600	711.9150
71.1700	828.5575
71.1800	799.3525
71.1900	733.0200
71.2000	772.7275
71.2100	822.4175
71.2200	822.1275
71.2300	760.6575
71.2400	789.3275
71.2500	749.4950
71.2600	761.4350
71.2700	794.5225
71.2800	777.6300
71.2900	766.6675
71.3000	766.6675
71.3100	733.1425
71.3200	716.6675
71.3300	694.3300
71.3400	638.6750
71.3500	717.1175
71.3600	788.9825
71.3700	733.0725
71.3800	744.6050
71.3900	855.8475
71.4000	877.7125
71.4100	877.8075
71.4200	939.0200
71.4300	844.1925
71.4400	649.7650
71.4500	705.7325
71.4600	800.0375
71.4700	749.9450
71.4800	905.6550
71.4900	911.0900
71.5000	866.6675
71.5100	755.5975
71.5200	722.2075
71.5300	755.5325
71.5400	777.7625
71.5500	772.2400
71.5600	666.8575
71.5700	661.0125
71.5800	694.4175
71.5900	677.8400
71.6000	722.0475
71.6100	871.8000
71.6200	966.5425
71.6300	872.6725
71.6400	827.7300
71.6500	866.5100
71.6600	861.2225
71.6700	783.6850
71.6800	750.0000
71.6900	838.3650
71.7000	861.2500
71.7100	872.0775
71.7200	784.0150
71.7300	810.5575
71.7400	905.1425
71.7500	922.3075
71.7600	883.6025
71.7700	866.6675
71.7800	756.5175
71.7900	711.0125
71.8000	716.6675
71.8100	738.6750
71.8200	783.0050
71.8300	832.9950
71.8400	904.9725
71.8500	878.3775
71.8600	718.1475
71.8700	671.9700
71.8800	771.1825
71.8900	717.8675
71.9000	743.4875
71.9100	805.2750
71.9200	904.4050
71.9300	884.2150
71.9400	915.7650
71.9500	960.9575
71.9600	879.0350
71.9700	800.4825
71.9800	750.4925
71.9900	831.8275
72.0000	828.6325
72.0100	756.2525
72.0200	678.6650
72.0300	639.0700
72.0400	764.4550
72.0500	866.1025
72.0600	850.5725
72.0700	789.6675
72.0800	799.4075
72.0900	805.7575
72.1000	789.0925
72.1100	794.2375
72.1200	734.6025
72.1300	732.6900
72.1400	804.4650
72.1500	724.4375
72.1600	677.5525
72.1700	694.2150
72.1800	743.5175
72.1900	853.6750
72.2000	900.0000
72.2100	813.0450
72.2200	712.3375
72.2300	759.3725
72.2400	789.1400
72.2500	761.6225
72.2600	717.4425
72.2700	786.7925
72.2800	855.0250
72.2900	758.2425
72.3000	754.1950
72.3100	848.3475
72.3200	710.0150
72.3300	779.1025
72.3400	790.8875
72.3500	825.7550
72.3600	834.2100
72.3700	870.7450
72.3800	932.4375
72.3900	960.8100
72.4000	891.0275
72.4100	774.3850
72.4200	787.3275
72.4300	870.6450
72.4400	921.5850
72.4500	868.6000
72.4600	844.1200
72.4700	925.4750
72.4800	1009.7825
72.4900	914.8050
72.5000	817.6850
72.5100	896.9175
72.5200	971.5300
72.5300	1026.3825
72.5400	974.6900
72.5500	933.3325
72.5600	933.3325
72.5700	922.5850
72.5800	959.6475
72.5900	929.6225
72.6000	900.0000
72.6100	932.2075
72.6200	939.2675
72.6300	1051.3500
72.6400	998.6875
72.6500	954.7775
72.6600	913.0725
72.6700	894.0500
72.6800	932.1375
72.6900	917.8725
72.7000	985.6450
72.7100	1044.0350
72.7200	996.5050
72.7300	859.7100
72.7400	767.9225
72.7500	910.3350
72.7600	967.9425
72.7700	982.0475
72.7800	1074.7550
72.7900	1031.2600
72.8000	1015.3500
72.8100	915.9725
72.8200	935.3275
72.8300	1079.2975
72.8400	1016.0800
72.8500	928.6875
72.8600	991.2375
72.8700	1001.3850
72.8800	972.6875
72.8900	1051.8100
72.9000	1078.7200
72.9100	1056.0300
72.9200	1124.4325
72.9300	1230.4450
72.9400	1256.0400
72.9500	1260.6225
72.9600	1383.4875
72.9700	1503.0850
72.9800	1384.7425
72.9900	1321.2200
73.0000	1333.3325
73.0100	1449.9750
73.0200	1548.4675
73.0300	1789.2100
73.0400	1937.8550
73.0500	1844.0925
73.0600	1666.8700
73.0700	1705.8425
73.0800	1798.4100
73.0900	1795.5100
73.1000	1762.1850
73.1100	1570.2875
73.1200	1498.3700
73.1300	1484.9725
73.1400	1403.2975
73.1500	1535.6000
73.1600	1559.4475
73.1700	1421.7000
73.1800	1429.9600
73.1900	1466.6675
73.2000	1413.9550
73.2100	1383.3325
73.2200	1288.5100
73.2300	1243.8650
73.2400	1460.5900
73.2500	1530.7025
73.2600	1447.3850
73.2700	1532.3850
73.2800	1673.6175
73.2900	1611.5325
73.3000	1329.2850
73.3100	1115.9425
73.3200	1276.7450
73.3300	1389.5000
73.3400	1320.3475
73.3500	1146.9075
73.3600	1003.7200
73.3700	1050.5700
73.3800	1005.6375
73.3900	1096.7425
73.4000	1214.7675
73.4100	1222.8575
73.4200	1059.5850
73.4300	1008.5425
73.4400	1054.2650
73.4500	1045.7425
73.4600	939.1975
73.4700	904.2450
73.4800	958.4800
73.4900	983.3325
73.5000	962.4400
73.5100	1012.6625
73.5200	1060.4400
73.5300	1066.6675
73.5400	1024.9300
73.5500	853.9650
73.5600	902.2300
73.5700	1025.0325
73.5800	1008.3125
73.5900	983.3325
73.6000	1004.1650
73.6100	922.9550
73.6200	929.1225
73.6300	987.4800
73.6400	979.1950
73.6500	925.0675
73.6600	993.5725
73.6700	987.6375
73.6800	960.3900
73.6900	997.8300
73.7000	1037.4350
73.7100	894.2800
73.7200	758.4875
73.7300	764.4600
73.7400	824.8225
73.7500	850.0000
73.7600	953.6600
73.7700	985.5775
73.7800	914.8675
73.7900	831.5500
73.8000	893.1825
73.8100	908.5975
73.8200	976.4625
73.8300	981.6100
73.8400	929.3175
73.8500	875.3125
73.8600	870.6700
73.8700	924.6625
73.8800	960.3300
73.8900	801.4450
73.9000	782.5850
73.9100	936.5350
73.9200	948.4150
73.9300	957.9225
73.9400	1045.2000
73.9500	1031.7925
73.9600	835.1175
73.9700	805.4475
73.9800	994.1875
73.9900	990.6675
74.0000	850.9875
74.0100	913.1900
74.0200	983.3325
74.0300	983.3325
74.0400	993.6150
74.0500	1000.0000
74.0600	938.3500
74.0700	941.0875
74.0800	966.6675
74.0900	1089.8625
74.1000	1094.8250
74.1100	947.3975
74.1200	873.0750
74.1300	938.4475
74.1400	1075.5950
74.1500	1123.0850
74.1600	1003.9650
74.1700	953.8175
74.1800	1099.7825
74.1900	1050.2575
74.2000	905.2650
74.2100	958.7450
74.2200	1108.7175
74.2300	1135.9925
74.2400	1075.7775
74.2500	988.6850
74.2600	939.7850
74.2700	994.6125
74.2800	972.0700
74.2900	974.1625
74.3000	938.7725
74.3100	961.2100
74.3200	969.4025
74.3300	1011.1750
74.3400	1121.3525
74.3500	1115.7150
74.3600	991.6475
74.3700	923.1500
74.3800	998.1200
74.3900	1161.9650
74.4000	1223.1575
74.4100	1226.8400
74.4200	1090.9525
74.4300	959.3300
74.4400	933.3325
74.4500	1045.1100
74.4600	1218.2550
74.4700	1303.6450
74.4800	1194.8300
74.4900	1076.0650
74.5000	1050.0000
74.5100	1121.0125
74.5200	1197.0925
74.5300	1176.1100
74.5400	1160.1350
74.5500	1197.0675
74.5600	1135.6225
74.5700	1113.7175
74.5800	1194.0825
74.5900	1182.7225
74.6000	1160.1200
74.6100	1136.3175
74.6200	1076.2125
74.6300	1070.2225
74.6400	1234.9575
74.6500	1353.5450
74.6600	1407.0775
74.6700	1261.6325
74.6800	1139.9025
74.6900	1203.9950
74.7000	1250.0000
74.7100	1260.0900
74.7200	1377.6150
74.7300	1429.8325
74.7400	1406.5850
74.7500	1410.0775
74.7600	1456.9675
74.7700	1422.8975
74.7800	1574.6625
74.7900	1760.4025
74.8000	1628.9025
74.8100	1577.0375
74.8200	1707.2000
74.8300	1847.1175
74.8400	1960.3225
74.8500	1909.5400
74.8600	1930.3875
74.8700	1983.3325
74.8800	1913.0325
74.8900	1987.1525
74.9000	2116.8550
74.9100	2180.1050
74.9200	2099.6750
74.9300	2253.9875
74.9400	2379.9450
74.9500	2366.6675
74.9600	2446.8425
74.9700	2590.1725
74.9800	2700.0825
74.9900	2703.2925
75.0000	2783.4475
75.0100	2870.0175
75.0200	2903.3450
75.0300	3316.8100
75.0400	3623.3375
75.0500	3630.0025
75.0600	3626.6625
75.0700	3863.1775
75.0800	4236.4600
75.0900	4533.1550
75.1000	4813.0725
75.1100	5282.7350
75.1200	5895.9200
75.1300	6419.4000
75.1400	7128.6875
75.1500	7762.5700
75.1600	8418.5975
75.1700	9361.2925
75.1800	10590.5050
75.1900	11671.3125
75.2000	12810.2150
75.2100	14249.4250
75.2200	15862.1675
75.2300	17986.3975
75.2400	19314.9175
75.2500	20395.5375
75.2600	21662.8175
75.2700	22481.3225
75.2800	23193.7875
75.2900	23387.4775
75.3000	22882.7275
75.3100	22053.7075
75.3200	20948.5025
75.3300	20172.0250
75.3400	19417.5950
75.3500	18824.9550
75.3600	17850.0250
75.3700	16440.3125
75.3800	15301.4850
75.3900	14539.9725
75.4000	14194.1375
75.4100	13667.6475
75.4200	13191.5075
75.4300	13340.8200
75.4400	13665.1800
75.4500	14093.3200
75.4600	14712.5125
75.4700	14231.4075
75.4800	13588.0775
75.4900	13767.0025
75.5000	14296.0325
75.5100	14276.3425
75.5200	13773.8975
75.5300	13223.9750
75.5400	12506.1400
75.5500	11830.9225
75.5600	11106.3750
75.5700	10075.7550
75.5800	9136.2125
75.5900	8343.1225
75.6000	7444.6025
75.6100	6734.4525
75.6200	6280.0625
75.6300	5751.9850
75.6400	5155.1125
75.6500	4818.1500
75.6600	4533.3150
75.6700	4107.6150
75.6800	3828.0625
75.6900	3628.8725
75.7000	3474.2925
75.7100	3049.6525
75.7200	2704.6475
75.7300	2758.1675
75.7400	2617.0450
75.7500	2447.0075
75.7600	2384.2000
75.7700	2182.9825
75.7800	2174.7125
75.7900	2191.0800
75.8000	1963.4600
75.8100	1833.3325
75.8200	1960.9075
75.8300	2040.1875
75.8400	1896.0075
75.8500	1603.8625
75.8600	1486.2750
75.8700	1578.4200
75.8800	1525.5300
75.8900	1450.0000
75.9000	1498.9800
75.9100	1484.3650
75.9200	1479.3750
75.9300	1509.7900
75.9400	1330.7050
75.9500	1297.8525
75.9600	1249.2675
75.9700	1176.4475
75.9800	1261.5650
75.9900	1306.8900
76.0000	1251.1250
76.0100	1197.1225
76.0200	1222.4150
76.0300	1181.6200
76.0400	1084.5000
76.0500	1176.9375
76.0600	1188.5675
76.0700	1123.5725
76.0800	1184.9750
76.0900	1184.5525
76.1000	1159.7550
76.1100	1098.4025
76.1200	1011.0000
76.1300	1071.0650
76.1400	1094.3500
76.1500	1037.4350
76.1600	1094.6025
76.1700	1276.6200
76.1800	1210.8600
76.1900	1197.3600
76.2000	1179.0600
76.2100	1087.4700
76.2200	1125.0475
76.2300	1108.2975
76.2400	1144.4750
76.2500	1102.7575
76.2600	1043.0550
76.2700	1040.2800
76.2800	1062.4875
76.2900	1093.0500
76.3000	1070.8575
76.3100	933.4475
76.3200	840.2900
76.3300	862.4600
76.3400	970.6950
76.3500	1052.7425
76.3600	1056.9625
76.3700	1020.8950
76.3800	1019.4000
76.3900	994.5425
76.4000	986.0575
76.4100	1000.0000
76.4200	1029.0750
76.4300	972.4800
76.4400	994.1725
76.4500	1050.0000
76.4600	1001.5775
76.4700	947.3000
76.4800	1001.1000
76.4900	962.8875
76.5000	870.9675
76.5100	937.0800
76.5200	1087.0650
76.5300	1150.0000
76.5400	1091.9775
76.5500	904.9725
76.5600	887.0000
76.5700	901.6750
76.5800	857.0025
76.5900	927.2925
76.6000	1012.3125
76.6100	917.4375
76.6200	958.8650
76.6300	1050.0000
76.6400	1040.3475
76.6500	1014.0300
76.6600	1096.4950
76.6700	1118.4275
76.6800	1083.3325
76.6900	1092.9775
76.7000	1003.5725
76.7100	856.2050
76.7200	896.3925
76.7300	928.1150
76.7400	890.3650
76.7500	864.0650
76.7600	898.1625
76.7700	962.2275
76.7800	906.2975
76.7900	907.7675
76.8000	1055.8875
76.8100	1008.2150
76.8200	791.5700
76.8300	844.3175
76.8400	1046.1975
76.8500	982.0150
76.8600	883.3325
76.8700	1008.3250
76.8800	1042.3200
76.8900	894.2725
76.9000	845.4975
76.9100	953.1425
76.9200	949.4175
76.9300	900.0000
76.9400	986.4350
76.9500	973.1825
76.9600	916.6675
76.9700	926.2650
76.9800	1010.1150
76.9900	970.7050
77.0000	890.4050
77.0100	864.1475
77.0200	907.5500
77.0300	950.0000
77.0400	844.5275
77.0500	737.9050
77.0600	726.2525
77.0700	790.8375
77.0800	833.3325
77.0900	881.2375
77.1000	859.1900
77.1100	845.4000
77.1200	962.4325
77.1300	995.0325
77.1400	842.2100
77.1500	769.1450
77.1600	898.1825
77.1700	906.7800
77.1800	878.7025
77.1900	900.0000
77.2000	842.6100
77.2100	857.3800
77.2200	861.7525
77.2300	833.3325
77.2400	919.3675
77.2500	992.8900
77.2600	961.7750
77.2700	828.2275
77.2800	759.5525
77.2900	823.9800
77.3000	876.2175
77.3100	883.3325
77.3200	921.5250
77.3300	978.6400
77.3400	1000.0000
77.3500	952.2800
77.3600	811.6975
77.3700	771.4975
77.3800	866.7800
77.3900	916.6675
77.4000	859.4450
77.4100	835.7375
77.4200	869.0700
77.4300	902.4000
77.4400	888.0725
77.4500	752.3025
77.4600	752.4275
77.4700	883.3600
77.4800	876.1750
77.4900	833.3325
77.5000	842.8575
77.5100	897.6125
77.5200	914.2900
77.5300	871.4400
77.5400	830.9625
77.5500	854.7350
77.5600	845.2700
77.5700	769.0925
77.5800	799.9275
77.5900	916.5850
77.6000	871.5575
77.6100	742.9425
77.6200	766.5575
77.6300	835.6800
77.6400	811.9775
77.6500	878.3800
77.6600	940.4975
77.6700	961.8400
77.6800	1106.8450
77.6900	1038.5075
77.7000	869.1750
77.7100	747.8600
77.7200	721.3175
77.7300	835.4525
77.7400	985.4400
77.7500	936.0950
77.7600	850.0000
77.7700	868.9800
77.7800	845.3800
77.7900	769.2300
77.8000	733.3325
77.8100	714.3625
77.8200	756.9025
77.8300	837.9300
77.8400	847.7050
77.8500	804.8925
77.8600	735.9400
77.8700	709.4775
77.8800	697.7125
77.8900	797.0375
77.9000	854.9100
77.9100	814.3875
77.9200	771.5850
77.9300	806.8250
77.9400	859.4700
77.9500	895.0725
77.9600	840.9300
77.9700	745.4700
77.9800	707.2025
77.9900	718.9275
78.0000	790.1075
78.0100	795.4875
78.0200	795.0475
78.0300	835.5850
78.0400	925.6650
78.0500	907.6775
78.0600	850.0000
78.0700	821.6375
78.0800	781.0925
78.0900	747.7625
78.1000	723.8825
78.1100	801.7175
78.1200	857.2175
78.1300	850.0000
78.1400	774.4250
78.1500	716.6675
78.1600	773.3350
78.1700	769.4500
78.1800	742.7750
78.1900	750.0000
78.2000	740.5600
78.2100	837.1625
78.2200	897.7900
78.2300	855.0225
78.2400	748.4125
78.2500	702.2025
78.2600	744.9675
78.2700	785.5325
78.2800	790.5675
78.2900	745.6125
78.3000	801.5300
78.3100	866.6675
78.3200	838.3850
78.3300	760.1100
78.3400	726.0925
78.3500	846.4200
78.3600	942.7550
78.3700	808.6725
78.3800	737.6825
78.3900	804.3450
78.4000	814.4950
78.4100	837.6700
78.4200	781.9175
78.4300	735.4975
78.4400	778.2425
78.4500	828.2400
78.4600	812.3500
78.4700	811.5675
78.4800	748.6425
78.4900	673.9250
78.5000	723.1150
78.5100	804.2950
78.5200	842.7400
78.5300	831.1900
78.5400	807.2625
78.5500	922.2400
78.5600	969.6575
78.5700	858.1250
78.5800	837.6000
78.5900	847.8700
78.6000	814.5375
78.6100	828.1900
78.6200	878.1875
78.6300	881.2100
78.6400	876.0600
78.6500	826.9775
78.6600	736.3750
78.6700	662.4375
78.6800	736.6200
78.6900	835.4450
78.7000	756.1225
78.7100	711.4925
78.7200	770.8750
78.7300	771.8450
78.7400	721.8500
78.7500	793.8275
78.7600	885.4300
78.7700	834.3350
78.7800	858.3700
78.7900	869.7725
78.8000	777.0675
78.8100	780.2175
78.8200	844.7950
78.8300	847.9175
78.8400	786.4650
78.8500	693.7625
78.8600	706.2300
78.8700	721.8875
78.8800	690.6300
78.8900	748.9150
78.9000	715.6900
78.9100	696.8350
78.9200	780.1625
78.9300	891.5850
78.9400	903.1800
78.9500	819.8525
78.9600	811.4200
78.9700	833.3325
78.9800	767.8150
78.9900	726.0250
79.0000	723.9750
79.0100	716.6675
79.0200	688.5975
79.0300	704.0875
79.0400	770.7500
79.0500	771.9400
79.0600	721.9425
79.0700	784.1600
79.0800	821.9500
79.0900	828.0475
79.1000	831.3025
79.1100	732.5425
79.1200	666.6675
79.1300	666.6675
79.1400	722.7325
79.1500	785.3525
79.1600	753.2875
79.1700	707.3250
79.1800	681.3200
79.1900	741.3825
79.2000	800.0000
79.2100	809.3375
79.2200	769.9850
79.2300	733.3325
79.2400	780.0075
79.2500	854.0025
79.2600	780.6725
79.2700	672.0050
79.2800	733.9775
79.2900	725.3625
79.3000	657.3375
79.3100	668.6550
79.3200	674.0075
79.3300	638.6900
79.3400	644.6425
79.3500	666.6675
79.3600	750.5725
79.3700	779.3775
79.3800	684.7525
79.3900	707.8950
79.4000	701.4325
79.4100	705.9100
79.4200	750.0000
79.4300	731.3675
79.4400	772.5575
79.4500	788.7250
79.4600	775.9800
79.4700	820.5825
79.4800	859.3125
79.4900	848.0450
79.5000	824.0250
79.5100	807.3575
79.5200	706.9250
79.5300	642.6400
79.5400	705.8325
79.5500	722.0875
79.5600	820.9475
79.5700	814.3375
79.5800	668.2225
79.5900	635.2675
79.6000	668.6000
79.6100	627.5400
79.6200	611.2275
79.6300	698.4100
79.6400	796.4800
79.6500	805.4500
79.6600	783.3325
79.6700	764.7475
79.6800	740.7075
79.6900	659.0075
79.7000	674.3200
79.7100	733.3325
79.7200	798.3475
79.7300	784.9925
79.7400	779.7625
79.7500	816.6675
79.7600	779.5300
79.7700	759.2825
79.7800	748.1025
79.7900	751.8950
79.8000	803.7875
79.8100	842.6125
79.8200	822.1650
79.8300	762.8925
79.8400	724.0575
79.8500	716.6675
79.8600	735.2150
79.8700	740.7275
79.8800	714.7900
79.8900	672.1875
79.9000	677.8100
79.9100	700.0000
79.9200	700.0000
79.9300	755.6025
79.9400	781.4675
79.9500	692.5475
79.9600	744.5000
79.9700	777.7550
79.9800	724.0725
79.9900	762.9700
80.0000	809.2600
80.0100	751.8550
80.0200	672.2275
80.0300	751.8250
80.0400	879.6125
80.0500	796.3550
80.0600	746.2675
80.0700	811.0925
80.0800	796.3275
80.0900	785.1675
80.1000	873.9975
80.1100	822.3500
80.1200	788.8175
80.1300	731.6225
80.1400	714.7175
80.1500	812.8875
80.1600	785.2975
80.1700	779.5450
80.1800	798.1850
80.1900	727.8925
80.2000	646.3775
80.2100	727.5250
80.2200	807.4300
80.2300	707.6400
80.2400	670.2725
80.2500	736.9350
80.2600	692.8050
80.2700	697.9550
80.2800	722.3075
80.2900	709.2300
80.3000	670.5250
80.3100	614.8775
80.3200	636.9050
80.3300	722.0175
80.3400	748.2175
80.3500	733.3325
80.3600	742.5550
80.3700	832.9900
80.3800	789.3600
80.3900	700.0000
80.4000	672.3475
80.4100	677.6500
80.4200	792.1550
80.4300	811.3800
80.4400	775.8800
80.4500	728.0600
80.4600	710.9675
80.4700	714.9125
80.4800	727.6275
80.4900	786.8300
80.5000	908.7325
80.5100	900.4825
80.5200	787.3125
80.5300	796.0175
80.5400	851.7375
80.5500	894.2700
80.5600	870.6675
80.5700	787.3400
80.5800	805.1850
80.5900	794.8200
80.6000	740.8050
80.6100	760.9150
80.6200	847.6850
80.6300	872.4250
80.6400	785.6650
80.6500	742.5225
80.6600	704.0575
80.6700	721.7900
80.6800	794.2250
80.6900	779.9275
80.7000	759.1850
80.7100	785.0325
80.7200	790.8175
80.7300	719.0725
80.7400	629.9500
80.7500	655.0675
80.7600	654.1175
80.7700	680.8950
80.7800	760.8550
80.7900	856.7175
80.8000	843.2925
80.8100	700.7975
80.8200	651.6725
80.8300	840.8650
80.8400	873.3275
80.8500	819.9975
80.8600	795.0125
80.8700	786.6525
80.8800	807.5050
80.8900	763.3550
80.9000	815.7700
80.9100	929.1250
80.9200	884.2525
80.9300	743.4175
80.9400	674.1775
80.9500	749.0475
80.9600	780.0575
80.9700	740.8500
80.9800	705.8850
80.9900	674.1850
81.0000	712.4025
81.0100	832.3125
81.0200	835.9875
81.0300	774.1900
81.0400	803.2350
81.0500	769.3475
81.0600	744.0850
81.0700	766.6675
81.0800	775.8025
81.0900	783.3325
81.1000	774.2000
81.1100	775.8000
81.1200	701.1475
81.1300	605.9425
81.1400	702.0125
81.1500	745.2325
81.1600	727.3800
81.1700	677.0000
81.1800	571.0475
81.1900	651.9250
81.2000	813.8475
81.2100	839.3075
81.2200	780.1925
81.2300	759.1175
81.2400	702.8575
81.2500	768.4850
81.2600	830.2150
81.2700	745.3300
81.2800	672.6700
81.2900	704.6525
81.3000	704.4625
81.3100	766.8325
81.3200	786.2675
81.3300	760.6425
81.3400	783.3325
81.3500	810.6350
81.3600	842.4325
81.3700	831.8050
81.3800	807.5700
81.3900	790.9050
81.4000	783.3325
81.4100	792.4250
81.4200	781.8200
81.4300	775.7550
81.4400	746.9825
81.4500	762.0975
81.4600	827.2550
81.4700	895.4175
81.4800	915.1700
81.4900	791.0350
81.5000	690.9200
81.5100	683.3325
81.5200	701.4850
81.5300	816.4850
81.5400	927.2200
81.5500	859.2850
81.5600	756.1225
81.5700	706.1275
81.5800	647.0650
81.5900	752.6475
81.6000	884.7950
81.6100	791.2525
81.6200	700.0000
81.6300	844.9500
81.6400	830.8000
81.6500	707.6100
81.6600	772.4375
81.6700	788.0675
81.6800	713.7925
81.6900	692.3825
81.7000	700.0000
81.7100	754.2825
81.7200	845.2275
81.7300	810.9825
81.7400	740.9575
81.7500	778.5350
81.7600	825.7050
81.7700	806.2225
81.7800	756.2250
81.7900	742.3675
81.8000	731.9350
81.8100	752.7900
81.8200	774.3050
81.8300	757.6400
81.8400	686.8175
81.8500	642.3575
81.8600	740.2275
81.8700	807.6450
81.8800	908.2325
81.8900	990.9825
81.9000	839.0775
81.9100	707.6525
81.9200	718.0250
81.9300	706.3000
81.9400	728.3800
81.9500	748.6525
81.9600	688.3050
81.9700	659.0050
81.9800	603.6500
81.9900	586.0025
82.0000	751.6525
82.0100	857.6700
82.0200	796.0275
82.0300	732.0125
82.0400	761.6275
82.0500	791.0100
82.0600	756.3675
82.0700	724.3475
82.0800	734.6375
82.0900	803.9000
82.1000	769.1675
82.1100	726.9400
82.1200	696.1325
82.1300	703.8575
82.1400	803.8450
82.1500	796.1650
82.1600	750.0000
82.1700	821.7500
82.1800	775.7300
82.1900	674.3675
82.2000	702.5200
82.2100	679.5650
82.2200	678.1325
82.2300	752.4975
82.2400	810.2000
82.2500	824.3800
82.2600	771.9050
82.2700	778.0850
82.2800	745.0800
82.2900	763.8500
82.3000	770.7225
82.3100	689.8400
82.3200	729.2525
82.3300	702.8850
82.3400	686.9550
82.3500	804.8125
82.3600	893.4650
82.3700	854.1500
82.3800	844.6450
82.3900	910.1150
82.4000	870.8575
82.4100	780.9750
82.4200	830.2900
82.4300	900.0000
82.4400	873.2475
82.4500	796.5100
82.4600	723.2600
82.4700	806.9350
82.4800	802.0000
82.4900	681.0375
82.5000	703.4300
82.5100	741.0975
82.5200	768.9375
82.5300	746.6075
82.5400	655.5150
82.5500	598.8775
82.5600	574.4400
82.5700	593.3375
82.5800	652.2200
82.5900	701.1075
82.6000	743.3200
82.6100	775.5500
82.6200	818.8550
82.6300	761.2200
82.6400	692.2100
82.6500	762.1150
82.6600	869.8975
82.6700	827.9725
82.6800	767.7350
82.6900	774.4675
82.7000	660.3125
82.7100	602.1100
82.7200	713.0600
82.7300	809.9025
82.7400	797.9175
82.7500	775.5175
82.7600	836.4325
82.7700	927.5700
82.7800	887.0600
82.7900	798.9800
82.8000	774.4925
82.8100	793.1825
82.8200	807.8300
82.8300	791.1650
82.8400	800.9975
82.8500	763.6900
82.8600	769.6300
82.8700	825.4925
82.8800	780.3975
82.8900	742.1525
82.9000	820.5450
82.9100	821.6250
82.9200	828.3600
82.9300	865.7125
82.9400	938.0875
82.9500	963.8300
82.9600	960.6850
82.9700	911.9850
82.9800	815.7350
82.9900	808.7975
83.0000	799.0775
83.0100	836.0850
83.0200	944.8600
83.0300	876.9800
83.0400	713.9575
83.0500	710.5775
83.0600	802.6800
83.0700	893.8875
83.0800	898.2325
83.0900	928.0750
83.1000	948.2525
83.1100	811.4575
83.1200	734.1975
83.1300	723.7125
83.1400	787.6000
83.1500	875.4250
83.1600	787.0275
83.1700	682.4950
83.1800	701.6675
83.1900	750.8275
83.2000	836.6250
83.2100	952.4525
83.2200	956.3025
83.2300	872.9800
83.2400	885.7400
83.2500	907.1375
83.2600	909.5225
83.2700	915.8800
83.2800	882.5525
83.2900	918.9950
83.3000	1018.9800
83.3100	1014.3700
83.3200	940.5250
83.3300	890.5350
83.3400	884.0825
83.3500	882.5900
83.3600	857.9650
83.3700	971.8025
83.3800	1109.4250
83.3900	1081.1650
83.4000	1120.2525
83.4100	1226.0675
83.4200	1267.3725
83.4300	1239.9150
83.4400	1156.5950
83.4500	1090.6325
83.4600	1101.3675
83.4700	1272.0975
83.4800	1373.9900
83.4900	1271.9950
83.5000	1122.0225
83.5100	1188.5825
83.5200	1342.6425
83.5300	1522.4725
83.5400	1606.0950
83.5500	1411.5975
83.5600	1421.6900
83.5700	1506.7775
83.5800	1492.5900
83.5900	1689.4400
83.6000	1789.5500
83.6100	1595.2075
83.6200	1527.0750
83.6300	1600.5875
83.6400	1642.5400
83.6500	1752.8775
83.6600	1773.0050
83.6700	1776.9725
83.6800	1996.9650
83.6900	2072.5175
83.7000	2025.8200
83.7100	2170.4450
83.7200	2266.1325
83.7300	2327.3750
83.7400	2305.4625
83.7500	2534.5400
83.7600	3005.0950
83.7700	3029.3050
83.7800	2942.9100
83.7900	3180.6500
83.8000	3495.3050
83.8100	4002.4425
83.8200	4426.6550
83.8300	4654.6650
83.8400	4919.4275
83.8500	5290.5975
83.8600	5875.1725
83.8700	6542.6025
83.8800	7122.7575
83.8900	7392.7375
83.9000	8005.8175
83.9100	9096.6475
83.9200	9838.6575
83.9300	10271.9075
83.9400	11080.5550
83.9500	12119.0675
83.9600	12813.9000
83.9700	13390.8825
83.9800	13716.6675
83.9900	13895.4925
84.0000	14015.5925
84.0100	13762.4525
84.0200	13285.9800
84.0300	12736.0875
84.0400	12424.1725
84.0500	11771.6400
84.0600	10886.1000
84.0700	10243.4600
84.0800	9730.2850
84.0900	9201.9275
84.1000	8697.3775
84.1100	8278.7825
84.1200	7991.2500
84.1300	7822.6975
84.1400	7488.6300
84.1500	7401.5425
84.1600	7626.8775
84.1700	7910.6475
84.1800	8049.7625
84.1900	7788.3375
84.2000	7558.4450
84.2100	8132.2275
84.2200	8632.7075
84.2300	8709.8450
84.2400	8706.8725
84.2500	8440.0725
84.2600	8241.0350
84.2700	8006.5125
84.2800	7749.1675
84.2900	7313.3225
84.3000	6605.0650
84.3100	6266.8125
84.3200	6056.4750
84.3300	5413.4050
84.3400	4865.6800
84.3500	4506.7675
84.3600	4191.0700
84.3700	3890.4000
84.3800	3364.8800
84.3900	2966.2325
84.4000	2891.7075
84.4100	2799.5675
84.4200	2566.1500
84.4300	2383.1625
84.4400	2425.2725
84.4500	2416.4125
84.4600	2258.2125
84.4700	2108.1850
84.4800	1941.5775
84.4900	1858.3275
84.5000	1749.9725
84.5100	1758.3125
84.5200	1899.9775
84.5300	1891.7125
84.5400	1725.1950
84.5500	1516.8350
84.5600	1408.3950
84.5700	1341.7900
84.5800	1424.5725
84.5900	1442.0875
84.6000	1275.2550
84.6100	1183.4950
84.6200	1091.9750
84.6300	1074.7600
84.6400	1091.8225
84.6500	959.0600
84.6600	874.8200
84.6700	866.9225
84.6800	915.9875
84.6900	983.4775
84.7000	950.1525
84.7100	925.0800
84.7200	941.4150
84.7300	1032.6300
84.7400	1001.1050
84.7500	916.4750
84.7600	958.0325
84.7700	966.8750
84.7800	982.9000
84.7900	1049.5500
84.8000	1034.0325
84.8100	876.5700
84.8200	733.8325
84.8300	896.9025
84.8400	1091.8000
84.8500	960.3950
84.8600	808.7575
84.8700	766.9575
84.8800	880.9325
84.8900	918.5175
84.9000	816.6675
84.9100	824.8375
84.9200	808.8350
84.9300	783.3325
84.9400	775.1750
84.9500	799.2800
84.9600	890.3775
84.9700	925.5650
84.9800	875.5800
84.9900	866.2725
85.0000	899.5975
85.0100	908.5400
85.0200	867.5075
85.0300	825.2150
85.0400	832.8950
85.0500	858.1100
85.0600	785.6150
85.0700	756.7050
85.0800	808.5700
85.0900	759.5400
85.1000	724.7550
85.1100	741.4150
85.1200	790.3925
85.1300	801.0375
85.1400	815.0825
85.1500	842.4725
85.1600	776.3650
85.1700	813.8900
85.1800	867.7950
85.1900	793.1000
85.2000	758.0425
85.2100	742.5550
85.2200	700.6025
85.2300	659.2500
85.2400	681.4725
85.2500	789.4650
85.2600	858.0150
85.2700	794.5825
85.2800	668.6400
85.2900	688.6650
85.3000	742.6800
85.3100	716.6675
85.3200	780.5525
85.3300	873.9425
85.3400	828.2150
85.3500	734.0575
85.3600	748.5325
85.3700	791.2950
85.3800	807.9575
85.3900	784.8575
85.4000	726.1575
85.4100	684.1150
85.4200	682.5425
85.4300	739.6625
85.4400	759.5500
85.4500	749.1800
85.4600	719.1600
85.4700	690.4050
85.4800	637.5875
85.4900	542.0975
85.5000	572.8225
85.5100	719.2750
85.5200	793.8925
85.5300	702.7025
85.5400	673.6325
85.5500	668.5075
85.5600	672.6725
85.5700	693.0775
85.5800	650.9525
85.5900	664.7425
85.6000	739.2375
85.6100	775.4900
85.6200	782.3400
85.6300	800.0000
85.6400	737.3850
85.6500	713.5975
85.6600	711.9525
85.6700	743.7350
85.6800	818.7750
85.6900	767.7325
85.7000	734.4100
85.7100	833.5200
85.7200	857.6775
85.7300	725.5525
85.7400	677.7950
85.7500	664.4100
85.7600	692.2375
85.7700	706.6075
85.7800	803.1100
85.7900	867.8375
85.8000	757.0925
85.8100	665.4750
85.8200	745.1850
85.8300	847.5700
85.8400	852.4500
85.8500	778.0900
85.8600	694.7850
85.8700	688.5200
85.8800	664.0450
85.8900	591.0275
85.9000	623.0625
85.9100	734.5050
85.9200	771.9200
85.9300	776.7100
85.9400	836.0050
85.9500	746.3800
85.9600	767.5300
85.9700	805.4775
85.9800	702.7600
85.9900	712.4900
86.0000	812.4575
86.0100	851.4150
86.0200	787.6100
86.0300	695.2600
86.0400	650.0000
86.0500	650.0000
86.0600	650.0000
86.0700	612.0425
86.0800	665.2850
86.0900	684.7900
86.1000	612.1125
86.1100	742.3525
86.1200	901.3975
86.1300	945.5500
86.1400	839.5925
86.1500	736.4850
86.1600	775.3925
86.1700	844.0675
86.1800	741.3925
86.1900	665.0425
86.2000	705.8800
86.2100	740.8425
86.2200	757.5025
86.2300	744.1725
86.2400	701.6825
86.2500	615.9625
86.2600	608.1300
86.2700	722.4200
86.2800	720.1300
86.2900	720.6400
86.3000	744.3000
86.3100	634.7250
86.3200	540.7775
86.3300	602.0600
86.3400	740.9750
86.3500	848.1825
86.3600	866.6675
86.3700	733.2450
86.3800	529.6350
86.3900	498.1325
86.4000	590.6025
86.4100	683.3325
86.4200	690.7150
86.4300	677.8750
86.4400	664.7375
86.4500	675.9700
86.4600	681.3775
86.4700	758.7975
86.4800	781.9300
86.4900	628.6250
86.5000	531.3275
86.5100	535.3525
86.5200	611.7950
86.5300	718.7100
86.5400	678.0850
86.5500	671.8950
86.5600	678.1250
86.5700	620.8575
86.5800	597.8900
86.5900	623.9400
86.6000	669.6625
86.6100	665.8525
86.6200	607.2525
86.6300	623.9125
86.6400	633.3325
86.6500	611.6350
86.6600	655.5950
86.6700	778.8775
86.6800	715.6850
86.6900	597.7450
86.7000	602.2675
86.7100	568.9475
86.7200	557.1850
86.7300	588.2050
86.7400	573.6300
86.7500	595.4900
86.7600	664.2050
86.7700	652.4275
86.7800	707.1450
86.7900	709.5275
86.8000	764.1850
86.8100	835.7500
86.8200	788.1950
86.8300	735.7775
86.8400	695.3550
86.8500	659.5700
86.8600	607.4575
86.8700	585.4175
86.8800	626.2575
86.8900	680.2925
86.9000	787.8550
86.9100	767.2800
86.9200	678.8550
86.9300	720.4125
86.9400	781.4950
86.9500	712.2525
86.9600	676.3125
86.9700	659.6525
86.9800	614.9700
86.9900	657.6500
87.0000	727.4025
87.0100	636.0325
87.0200	609.6900
87.0300	627.8800
87.0400	624.8900
87.0500	559.7100
87.0600	591.6900
87.0700	656.9400
87.0800	625.0650
87.0900	615.1500
87.1000	662.5775
87.1100	640.2450
87.1200	705.2350
87.1300	776.4375
87.1400	697.7725
87.1500	668.8200
87.1600	739.1675
87.1700	651.9300
87.1800	603.9125
87.1900	688.1525
87.2000	828.2700
87.2100	807.2700
87.2200	697.8075
87.2300	753.0225
87.2400	712.8900
87.2500	676.5275
87.2600	680.2650
87.2700	686.4175
87.2800	666.6675
87.2900	673.4425
87.3000	649.4875
87.3100	660.8525
87.3200	743.2475
87.3300	665.8750
87.3400	566.6675
87.3500	613.7800
87.3600	750.5600
87.3700	769.4225
87.3800	683.5350
87.3900	800.3250
87.4000	826.3950
87.4100	730.0350
87.4200	729.9725
87.4300	679.9975
87.4400	643.3400
87.4500	600.0725
87.4600	556.6450
87.4700	573.3025
87.4800	636.3600
87.4900	723.2875
87.5000	753.1700
87.5100	723.8950
87.5200	646.5250
87.5300	640.3150
87.5400	586.8400
87.5500	579.8100
87.5600	639.3825
87.5700	667.2225
87.5800	616.6675
87.5900	655.9025
87.6000	670.9475
87.6100	593.4775
87.6200	596.3625
87.6300	610.1600
87.6400	619.4950
87.6500	682.4500
87.6600	674.9950
87.6700	563.9125
87.6800	559.1950
87.6900	619.3700
87.7000	643.5525
87.7100	620.4525
87.7200	600.0000
87.7300	593.5775
87.7400	602.5775
87.7500	684.5875
87.7600	734.6750
87.7700	670.5550
87.7800	720.1925
87.7900	769.6050
87.8000	615.7525
87.8100	603.2450
87.8200	703.9725
87.8300	683.3325
87.8400	632.6950
87.8500	568.9650
87.8600	694.6900
87.8700	786.9600
87.8800	645.5600
87.8900	595.9075
87.9000	641.7775
87.9100	683.3325
87.9200	683.3325
87.9300	670.8300
87.9400	631.2700
87.9500	581.2975
87.9600	550.0000
87.9700	568.6500
87.9800	624.8300
87.9900	617.0750
88.0000	545.7125
88.0100	585.2100
88.0200	610.4950
88.0300	624.6525
88.0400	666.6675
88.0500	654.3750
88.0600	633.3325
88.0700	584.3150
88.0800	506.1175
88.0900	553.3225
88.1000	592.2650
88.1100	568.2725
88.1200	642.5750
88.1300	710.5925
88.1400	669.6800
88.1500	665.1050
88.1600	762.0900
88.1700	698.8250
88.1800	592.1900
88.1900	690.7375
88.2000	727.3250
88.2100	722.6650
88.2200	745.3125
88.2300	760.6850
88.2400	702.2275
88.2500	604.7425
88.2600	583.3325
88.2700	654.6550
88.2800	747.7275
88.2900	671.4825
88.3000	655.9150
88.3100	654.8550
88.3200	645.1275
88.3300	666.6675
88.3400	625.5225
88.3500	550.0000
88.3600	532.4250
88.3700	535.0950
88.3800	605.8400
88.3900	669.1375
88.4000	795.7700
88.4100	791.8900
88.4200	671.7300
88.4300	603.6650
88.4400	528.2300
88.4500	573.0900
88.4600	657.0075
88.4700	670.0475
88.4800	561.4875
88.4900	629.2025
88.5000	665.1500
88.5100	612.3825
88.5200	705.7050
88.5300	710.9725
88.5400	654.5200
88.5500	572.3425
88.5600	611.6600
88.5700	677.9775
88.5800	666.1250
88.5900	611.2725
88.6000	678.3425
88.6100	777.9000
88.6200	715.9050
88.6300	538.8075
88.6400	561.3600
88.6500	655.5775
88.6600	633.2675
88.6700	583.3375
88.6800	661.0400
88.6900	694.6325
88.7000	616.4925
88.7100	710.9175
88.7200	766.6675
88.7300	711.7000
88.7400	627.4325
88.7500	699.7625
88.7600	711.4675
88.7700	672.1225
88.7800	672.4400
88.7900	628.2550
88.8000	567.0550
88.8100	527.9175
88.8200	538.2900
88.8300	642.6825
88.8400	702.0450
88.8500	550.5425
88.8600	564.9500
88.8700	661.3125
88.8800	655.3450
88.8900	639.9975
88.9000	593.9800
88.9100	611.3525
88.9200	631.8200
88.9300	710.5850
88.9400	706.9200
88.9500	623.6375
88.9600	582.4525
88.9700	611.4150
88.9800	594.7600
88.9900	609.4875
89.0000	651.0050
89.0100	632.2975
89.0200	677.0650
89.0300	710.3775
89.0400	722.9750
89.0500	663.8225
89.0600	603.9650
89.0700	639.7050
89.0800	575.5725
89.0900	503.8375
89.1000	524.4200
89.1100	492.1925
89.1200	529.6200
89.1300	534.1750
89.1400	655.0725
89.1500	641.3525
89.1600	628.8050
89.1700	708.1250
89.1800	624.8425
89.1900	596.7900
89.2000	636.6075
89.2100	571.6650
89.2200	608.2775
89.2300	661.6875
89.2400	674.8375
89.2500	753.1600
89.2600	760.4325
89.2700	646.9250
89.2800	614.7750
89.2900	654.9150
89.3000	651.9575
89.3100	553.0650
89.3200	419.5275
89.3300	491.0225
89.3400	559.7200
89.3500	597.8825
89.3600	618.8175
89.3700	559.1950
89.3800	524.0850
89.3900	597.7525
89.4000	599.7650
89.4100	540.5900
89.4200	609.5475
89.4300	652.3850
89.4400	676.2400
89.4500	592.9625
89.4600	590.0950
89.4700	742.7725
89.4800	747.8325
89.4900	653.0250
89.5000	547.3925
89.5100	606.7125
89.5200	694.6550
89.5300	715.4750
89.5400	606.5475
89.5500	648.1400
89.5600	572.2750
89.5700	536.8775
89.5800	647.1300
89.5900	683.3325
89.6000	701.6400
89.6100	722.6050
89.6200	627.2275
89.6300	562.1225
89.6400	595.3275
89.6500	730.2325
89.6600	762.1550
89.6700	727.5025
89.6800	648.7125
89.6900	626.8650
89.7000	691.0675
89.7100	702.3075
89.7200	768.8925
89.7300	634.5725
89.7400	535.3750
89.7500	620.1025
89.7600	578.9350
89.7700	588.6075
89.7800	632.4925
89.7900	592.0650
89.8000	651.5050
89.8100	745.6575
89.8200	690.0075
89.8300	596.9150
89.8400	696.2625
89.8500	677.4475
89.8600	529.5300
89.8700	566.6675
89.8800	583.7275
89.8900	667.3650
89.9000	749.6950
89.9100	700.0000
89.9200	742.2025
89.9300	828.7850
89.9400	720.8650
89.9500	750.0800
89.9600	783.3000
89.9700	720.8425
89.9800	687.4850
89.9900	687.5750
90.0000	637.6100
90.0100	587.6450
90.0200	554.1075
90.0300	595.3400
90.0400	683.3325
90.0500	695.5525
90.0600	757.7050
90.0700	821.1800
90.0800	795.4525
90.0900	821.2500
90.1000	783.3325
90.1100	779.3275
90.1200	762.6725
90.1300	746.0175
90.1400	717.4475
90.1500	666.6675
90.1600	674.5625
90.1700	711.8100
90.1800	753.9250
90.1900	735.3525
90.2000	672.3600
90.2100	784.4350
90.2200	752.7325
90.2300	855.3525
90.2400	979.4775
90.2500	978.2025
90.2600	1039.6725
90.2700	1078.4400
90.2800	927.1325
90.2900	914.5975
90.3000	1140.9100
90.3100	1177.9975
90.3200	1227.9625
90.3300	1262.9125
90.3400	1272.4550
90.3500	1398.5025
90.3600	1577.8250
90.3700	1598.1275
90.3800	1607.2650
90.3900	1862.9825
90.4000	1861.0200
90.4100	1859.7175
90.4200	1742.2200
90.4300	1851.5300
90.4400	1869.5075
90.4500	1667.4550
90.4600	1586.0450
90.4700	1677.1425
90.4800	1479.6100
90.4900	1272.6225
90.5000	1247.5675
90.5100	1285.8125
90.5200	1187.3725
90.5300	970.8575
90.5400	824.5850
90.5500	958.6750
90.5600	1123.6450
90.5700	1143.0450
90.5800	1102.8025
90.5900	1046.5450
90.6000	1053.9900
90.6100	1119.6075
90.6200	1059.8275
90.6300	1057.1925
90.6400	1129.6200
90.6500	1083.8525
90.6600	1213.2925
90.6700	1206.7250
90.6800	1236.6850
90.6900	1276.7100
90.7000	1343.4050
90.7100	1173.3850
90.7200	1156.4625
90.7300	1233.5375
90.7400	1160.1050
90.7500	1130.0650
90.7600	1087.3475
90.7700	947.1900
90.7800	866.6675
90.7900	831.2125
90.8000	680.1225
90.8100	692.2650
90.8200	806.3775
90.8300	849.2175
90.8400	894.5125
90.8500	790.5400
90.8600	743.7175
90.8700	741.7075
90.8800	828.1700
90.8900	730.2275
90.9000	716.6675
90.9100	707.4150
90.9200	669.7400
90.9300	668.0300
90.9400	621.3425
90.9500	719.7050
90.9600	730.3075
90.9700	707.6250
90.9800	660.6625
90.9900	642.3050
91.0000	665.4575
91.0100	574.4300
91.0200	545.1575
91.0300	608.8325
91.0400	632.4025
91.0500	547.0775
91.0600	547.8825
91.0700	639.8525
91.0800	758.6600
91.0900	785.6250
91.1000	710.9400
91.1100	683.3325
91.1200	686.1725
91.1300	688.6850
91.1400	633.3325
91.1500	624.9175
91.1600	588.9200
91.1700	613.8850
91.1800	594.4600
91.1900	580.4600
91.2000	641.7575
91.2100	597.2650
91.2200	591.5050
91.2300	644.1825
91.2400	675.6925
91.2500	563.4475
91.2600	654.7550
91.2700	761.3350
91.2800	730.6775
91.2900	708.7375
91.3000	666.6675
91.3100	643.0875
91.3200	514.0575
91.3300	520.7725
91.3400	643.6750
91.3500	700.0000
91.3600	687.1900
91.3700	609.0150
91.3800	551.4325
91.3900	471.7225
91.4000	515.0950
91.4100	605.0075
91.4200	633.3325
91.4300	635.8150
91.4400	647.5300
91.4500	625.9600
91.4600	593.1200
91.4700	637.8250
91.4800	556.9725
91.4900	502.4125
91.5000	538.2700
91.5100	659.5000
91.5200	602.4025
91.5300	547.4200
91.5400	723.9175
91.5500	645.5825
91.5600	532.9850
91.5700	633.3325
91.5800	637.9500
91.5900	657.4800
91.6000	586.2900
91.6100	518.1900
91.6200	626.5475
91.6300	578.8325
91.6400	541.0425
91.6500	481.1050
91.6600	495.4775
91.6700	678.9250
91.6800	643.4200
91.6900	595.6375
91.7000	564.4975
91.7100	554.3175
91.7200	594.0700
91.7300	668.8025
91.7400	685.4575
91.7500	695.7725
91.7600	647.7500
91.7700	520.8475
91.7800	560.3950
91.7900	645.7375
91.8000	729.2200
91.8100	677.5100
91.8200	532.9325
91.8300	643.9350
91.8400	597.9900
91.8500	597.3275
91.8600	690.0625
91.8700	620.6200
91.8800	648.0350
91.8900	623.5650
91.9000	538.3475
91.9100	463.5150
91.9200	574.3450
91.9300	633.3325
91.9400	625.7450
91.9500	555.3550
91.9600	476.0375
91.9700	548.1375
91.9800	527.7800
91.9900	496.2150
92.0000	598.1700
92.0100	581.5150
92.0200	566.6675
92.0300	572.0525
92.0400	609.5325
92.0500	548.2275
92.0600	550.9450
92.0700	687.7500
92.0800	590.2875
92.0900	639.6350
92.1000	543.1350
92.1100	493.5625
92.1200	583.3325
92.1300	578.2850
92.1400	538.3475
92.1500	593.2925
92.1600	676.7375
92.1700	613.3925
92.1800	586.5875
92.1900	626.3575
92.2000	703.8325
92.2100	600.8550
92.2200	761.9225
92.2300	700.9600
92.2400	560.9175
92.2500	662.0225
92.2600	622.8150
92.2700	681.8075
92.2800	659.0925
92.2900	583.3325
92.3000	571.3900
92.3100	472.2250
92.3200	697.0575
92.3300	656.4500
92.3400	542.7575
92.3500	470.9800
92.3600	518.0925
92.3700	523.4250
92.3800	423.6875
92.3900	512.5400
92.4000	654.1475
92.4100	701.3725
92.4200	719.3875
92.4300	747.3025
92.4400	709.9750
92.4500	632.0050
92.4600	608.7675
92.4700	517.9725
92.4800	530.7450
92.4900	505.1350
92.5000	564.1225
92.5100	532.0725
92.5200	525.4225
92.5300	625.8950
92.5400	538.2500
92.5500	602.4350
92.5600	634.5400
92.5700	653.5900
92.5800	689.3300
92.5900	545.3025
92.6000	485.6600
92.6100	510.9025
92.6200	437.9025
92.6300	511.3150
92.6400	663.3050
92.6500	615.5575
92.6600	604.3950
92.6700	677.5500
92.6800	823.6350
92.6900	685.4675
92.7000	705.0500
92.7100	535.4250
92.7200	568.7350
92.7300	606.1425
92.7400	700.0000
92.7500	696.9925
92.7600	652.9750
92.7700	699.0200
92.7800	677.5100
92.7900	579.4950
92.8000	514.7675
92.8100	492.7200
92.8200	653.7125
92.8300	700.1525
92.8400	413.0400
92.8500	360.7550
92.8600	550.0000
92.8700	550.8750
92.8800	565.8025
92.8900	550.0000
92.9000	546.6250
92.9100	490.8300
92.9200	629.2200
92.9300	552.4375
92.9400	603.2075
92.9500	664.2925
92.9600	616.6675
92.9700	611.2750
92.9800	506.0800
92.9900	631.8350
93.0000	597.7825
93.0100	547.0850
93.0200	485.4875
93.0300	534.7500
93.0400	567.3650
93.0500	584.0200
93.0600	604.7375
93.0700	716.0000
93.0800	695.4050
93.0900	585.2725
93.1000	633.3325
93.1100	633.3325
93.1200	631.4875
93.1300	582.1225
93.1400	547.0275
93.1500	470.7575
93.1600	583.3325
93.1700	582.2050
93.1800	550.5550
93.1900	568.8425
93.2000	636.5350
93.2100	731.2400
93.2200	664.1000
93.2300	582.3275
93.2400	549.5075
93.2500	533.8175
93.2600	550.0000
93.2700	549.5375
93.2800	536.5050
93.2900	648.6700
93.3000	596.5375
93.3100	466.6675
93.3200	469.9700
93.3300	597.5825
93.3400	500.7850
93.3500	535.2500
93.3600	616.6675
93.3700	614.1225
93.3800	500.0000
93.3900	502.0600
93.4000	600.6675
93.4100	634.6275
93.4200	699.3725
93.4300	663.6250
93.4400	498.8225
93.4500	433.3325
93.4600	434.7075
93.4700	516.4025
93.4800	500.7650
93.4900	550.4900
93.5000	585.4550
93.5100	731.3000
93.5200	581.8175
93.5300	466.8725
93.5400	484.3175
93.5500	566.4800
93.5600	549.2900
93.5700	483.6700
93.5800	516.1900
93.5900	468.1575
93.6000	633.0550
93.6100	600.0000
93.6200	599.6400
93.6300	549.4450
93.6400	466.8700
93.6500	500.7350
93.6600	633.2500
93.6700	616.7400
93.6800	633.3325
93.6900	632.8475
93.7000	483.6000
93.7100	583.4400
93.7200	633.2550
93.7300	583.2850
93.7400	533.3550
93.7500	583.3275
93.7600	550.0225
93.7700	566.6450
93.7800	550.0300
93.7900	666.3925
93.8000	550.3400
93.8100	550.0000
93.8200	550.0000
93.8300	583.1800
93.8400	666.2400
93.8500	550.6600
93.8600	550.0000
93.8700	566.5550
93.8800	467.3975
93.8900	450.1300
93.9000	416.9475
93.9100	565.3250
93.9200	550.1575
93.9300	550.0000
93.9400	451.0575
93.9500	433.5175
93.9600	581.5875
93.9700	484.5500
93.9800	549.1525
93.9900	582.8925
94.0000	599.7700
94.0100	517.8600
94.0200	500.2475
94.0300	549.2325
94.0400	566.4025
94.0500	632.2375
94.0600	584.1800
94.0700	583.3325
94.0800	566.9675
94.0900	566.6675
94.1000	566.6675
94.1100	648.3700
94.1200	486.6825
94.1300	483.3325
94.1400	515.9625
94.1500	565.5850
94.1600	582.9650
94.1700	550.7550
94.1800	387.1975
94.1900	546.0500
94.2000	631.3150
94.2100	730.8600
94.2200	522.1325
94.2300	370.5275
94.2400	464.0425
94.2500	596.4325
94.2600	583.7875
94.2700	664.3525
94.2800	682.8625
94.2900	553.8350
94.3000	517.6425
94.3100	565.1800
94.3200	598.9925
94.3300	632.3075
94.3400	552.6025
94.3500	598.4125
94.3600	535.4825
94.3700	613.9400
94.3800	536.1000
94.3900	404.4925
94.4000	593.1650
94.4100	680.4450
94.4200	667.2525
94.4300	666.6675
94.4400	570.2775
94.4500	518.4975
94.4600	548.7650
94.4700	630.2050
94.4800	585.2350
94.4900	615.3825
94.5000	696.7525
94.5100	716.0100
94.5200	476.6475
94.5300	562.6275
94.5400	566.6675
94.5500	582.6450
94.5600	647.2125
94.5700	618.0750
94.5800	616.6675
94.5900	696.4000
94.6000	588.4275
94.6100	424.0200
94.6200	512.2100
94.6300	612.1625
94.6400	664.3925
94.6500	571.2600
94.6600	550.7725
94.6700	438.8000
94.6800	576.2375
94.6900	599.2050
94.7000	615.8625
94.7100	632.5225
94.7200	744.2725
94.7300	670.7950
94.7400	524.1625
94.7500	516.6675
94.7600	469.2100
94.7700	498.2900
94.7800	484.1950
94.7900	609.7100
94.8000	600.8775
94.8100	647.3475
94.8200	618.4500
94.8300	553.5925
94.8400	739.1350
94.8500	686.9850
94.8600	604.5975
94.8700	568.5200
94.8800	676.7975
94.8900	636.1550
94.9000	539.0200
94.9100	501.9100
94.9200	562.8200
94.9300	598.0625
94.9400	647.0725
94.9500	602.9475
94.9600	584.3225
94.9700	614.6750
94.9800	647.9925
94.9900	650.0000
95.0000	603.0500
95.0100	584.3575
95.0200	552.0600
95.0300	675.0375
95.0400	636.4650
95.0500	570.8675
95.0600	488.6175
95.0700	608.1575
95.0800	554.2800
95.0900	627.9500
95.1000	617.7500
95.1100	523.2050
95.1200	469.9550
95.1300	528.9225
95.1400	533.3325
95.1500	548.8850
95.1600	612.1800
95.1700	616.6675
95.1800	663.2625
95.1900	557.9875
95.2000	658.6350
95.2100	511.5375
95.2200	422.4675
95.2300	494.1700
95.2400	453.5175
95.2500	465.4875
95.2600	652.4500
95.2700	666.6675
95.2800	635.7275
95.2900	617.8700
95.3000	585.7525
95.3100	506.0775
95.3200	561.7800
95.3300	612.9850
95.3400	585.8000
95.3500	629.6150
95.3600	633.3325
95.3700	556.2575
95.3800	550.0000
95.3900	550.0000
95.4000	565.3975
95.4100	612.8425
95.4200	601.2800
95.4300	461.5775
95.4400	526.8725
95.4500	610.1775
95.4600	770.2950
95.4700	660.4750
95.4800	573.2425
95.4900	566.6675
95.5000	597.3475
95.5100	676.6725
95.5200	637.3475
95.5300	725.2725
95.5400	610.7900
95.5500	615.3125
95.5600	570.7475
95.5700	551.3650
95.5800	657.0700
95.5900	666.6675
95.6000	620.8125
95.6100	631.9450
95.6200	648.6075
95.6300	573.6575
95.6400	566.6675
95.6500	551.4075
95.6600	534.7475
95.6700	441.8500
95.6800	600.9975
95.6900	570.9550
95.7000	536.2025
95.7100	609.4650
95.7200	555.7825
95.7300	565.2150
95.7400	536.2450
95.7500	548.5400
95.7600	550.0000
95.7700	519.6100
95.7800	547.0475
95.7900	580.3700
95.8000	583.3325
95.8100	568.1575
95.8200	566.6675
95.8300	551.5000
95.8400	595.4825
95.8500	630.3125
95.8600	557.5800
95.8700	580.2925
95.8800	659.0375
95.8900	545.5775
95.9000	639.2525
95.9100	604.6200
95.9200	645.3650
95.9300	680.2350
95.9400	501.9850
95.9500	377.5800
95.9600	396.8725
95.9700	535.8825
95.9800	550.0000
95.9900	474.5550
96.0000	572.2575
96.0100	688.8900
96.0200	654.7750
96.0300	650.0000
96.0400	589.7350
96.0500	598.3950
96.0600	554.8300
96.0700	565.0525
96.0800	596.7625
96.0900	690.2600
96.1000	715.0400
96.1100	611.4225
96.1200	645.0900
96.1300	529.7925
96.1400	486.6225
96.1500	528.3850
96.1600	578.3725
96.1700	553.3150
96.1800	550.0000
96.1900	505.0000
96.2000	529.9925
96.2100	488.3575
96.2200	483.3325
96.2300	558.2500
96.2400	611.6050
96.2500	631.6425
96.2600	543.5075
96.2700	563.2675
96.2800	566.6675
96.2900	551.7075
96.3000	535.0450
96.3100	488.4825
96.3200	528.1725
96.3300	637.9300
96.3400	650.0000
96.3500	635.0650
96.3600	603.4725
96.3700	659.7075
96.3800	636.8200
96.3900	588.5775
96.4000	657.9100
96.4100	666.6675
96.4200	592.1300
96.4300	687.6600
96.4400	714.9000
96.4500	582.6025
96.4600	596.4525
96.4700	689.3325
96.4800	610.6900
96.4900	510.7125
96.5000	559.5100
96.5100	522.0450
96.5200	531.5375
96.5300	607.6650
96.5400	646.3925
96.5500	620.2825
96.5600	542.3875
96.5700	488.7775
96.5800	616.9700
96.5900	573.9525
96.6000	492.4575
96.6100	646.5525
96.6200	696.3350
96.6300	596.1825
96.6400	627.8175
96.6500	544.3875
96.6600	607.4375
96.6700	601.8500
96.6800	496.3000
96.6900	453.7125
96.7000	509.2300
96.7100	575.8825
96.7200	598.1350
96.7300	540.8100
96.7400	577.7175
96.7500	583.3325
96.7600	583.3325
96.7700	627.6875
96.7800	559.4250
96.7900	609.1125
96.8000	587.1175
96.8100	598.1050
96.8200	629.5375
96.8300	603.8025
96.8400	614.7625
96.8500	528.1100
96.8600	457.6400
96.8700	627.0400
96.8800	576.2475
96.8900	581.4150
96.9000	539.1000
96.9100	503.8500
96.9200	470.5225
96.9300	555.0800
96.9400	640.3300
96.9500	576.3525
96.9600	596.1200
96.9700	614.7250
96.9800	557.7825
96.9900	564.7175
97.0000	596.0975
97.0100	452.8750
97.0200	521.5900
97.0300	621.5750
97.0400	559.8125
97.0500	520.5975
97.0600	619.5575
97.0700	662.7250
97.0800	666.6675
97.0900	637.2850
97.1000	648.0200
97.1100	708.7400
97.1200	657.9375
97.1300	503.2025
97.1400	615.4275
97.1500	603.9850
97.1600	585.3275
97.1700	627.3425
97.1800	545.3325
97.1900	621.3200
97.2000	618.6725
97.2100	543.3700
97.2200	474.7050
97.2300	554.5925
97.2400	654.5775
97.2500	652.0175
97.2600	664.6475
97.2700	622.7325
97.2800	528.8150
97.2900	545.9450
97.3000	579.2750
97.3100	627.2375
97.3200	662.5975
97.3300	593.5150
97.3400	554.0775
97.3500	681.6325
97.3600	816.9875
97.3700	628.6375
97.3800	629.2375
97.3900	574.8675
97.4000	537.4375
97.4100	504.1100
97.4200	602.2700
97.4300	587.4500
97.4400	481.0950
97.4500	452.0625
97.4600	537.6075
97.4700	622.9950
97.4800	618.7350
97.4900	660.4525
97.5000	622.8875
97.5100	485.3500
97.5200	510.4325
97.5300	633.3600
97.5400	533.3225
97.5500	647.9100
97.5600	593.7625
97.5700	597.9125
97.5800	629.1525
97.5900	691.6325
97.6000	627.1350
97.6100	543.8125
97.6200	664.4550
97.6300	756.1675
97.6400	621.0150
97.6500	629.1275
97.6600	691.5800
97.6700	670.8800
97.6800	666.6675
97.6900	637.5550
97.7000	618.7800
97.7100	660.3225
97.7200	695.7675
97.7300	598.1575
97.7400	568.7875
97.7500	523.0300
97.7600	633.0150
97.7700	664.5425
97.7800	623.0475
97.7900	616.6675
97.8000	645.7400
97.8100	533.7200
97.8200	589.3350
97.8300	701.7225
97.8400	731.1975
97.8500	675.2200
97.8600	695.7200
97.8700	627.3725
97.8800	573.0950
97.8900	639.2775
97.9000	650.0000
97.9100	504.8075
97.9200	439.7800
97.9300	607.5275
97.9400	575.2750
97.9500	566.6675
97.9600	610.2025
97.9700	616.6675
97.9800	529.6150
97.9900	560.1875
98.0000	566.6675
98.0100	581.1700
98.0200	554.3275
98.0300	622.5075
98.0400	560.8325
98.0500	636.9925
98.0600	635.5025
98.0700	488.3700
98.0800	481.1625
98.0900	468.8400
98.1000	582.6050
98.1100	600.0000
98.1200	585.5100
98.1300	597.8225
98.1400	542.0500
98.1500	562.3050
98.1600	624.6050
98.1700	604.3675
98.1800	628.9650
98.1900	546.4475
98.2000	605.7325
98.2100	645.6250
98.2200	621.0450
98.2300	616.6675
98.2400	529.8150
98.2500	502.1925
98.2600	557.8925
98.2700	566.6675
98.2800	624.5500
98.2900	662.2725
98.3000	623.2600
98.3100	631.1350
98.3200	662.2675
98.3300	594.3400
98.3400	612.2625
98.3500	703.4475
98.3600	615.4300
98.3700	657.8450
98.3800	695.5875
98.3900	671.0800
98.4000	536.5400
98.4100	516.6675
98.4200	675.6900
98.4300	714.4550
98.4400	687.7575
98.4500	582.1575
98.4600	566.6675
98.4700	566.6675
98.4800	537.7650
98.4900	605.5850
98.5000	688.9150
98.5100	656.6550
98.5200	606.6575
98.5300	744.4700
98.5400	737.7750
98.5500	617.7700
98.5600	556.6675
98.5700	550.0000
98.5800	607.7725
98.5900	558.8975
98.6000	477.7925
98.6100	509.9900
98.6200	646.6275
98.6300	681.1050
98.6400	712.2100
98.6500	572.2875
98.6600	593.3125
98.6700	643.3100
98.6800	592.2575
98.6900	641.0725
98.7000	678.8700
98.7100	755.5025
98.7200	665.6350
98.7300	621.1350
98.7400	544.5075
98.7500	562.1950
98.7600	609.9600
98.7700	688.8175
98.7800	671.1400
98.7900	709.9525
98.8000	557.9550
98.8100	634.3275
98.8200	693.2825
98.8300	685.5725
98.8400	625.6275
98.8500	631.0925
98.8600	532.3575
98.8700	531.0925
98.8800	576.6050
98.8900	698.7225
98.9000	601.2800
98.9100	496.7975
98.9200	569.8675
98.9300	583.3325
98.9400	554.4900
98.9500	477.8950
98.9600	610.8725
98.9700	748.6950
98.9800	651.3075
98.9900	575.6550
99.0000	667.6000
99.0100	567.9850
99.0200	607.6725
99.0300	616.6675
99.0400	631.0850
99.0500	748.6725
99.0600	507.1625
99.0700	423.4175
99.0800	604.0775
99.0900	690.9975
99.1000	555.8425
99.1100	562.1650
99.1200	739.6475
99.1300	766.6675
99.1400	680.1800
99.1500	681.0800
99.1600	712.1625
99.1700	644.5975
99.1800	532.4375
99.1900	545.4925
99.2000	550.0000
99.2100	578.8250
99.2200	684.2225
99.2300	714.4125
99.2400	630.1925
99.2500	559.0175
99.2600	550.0000
99.2700	636.4700
99.2800	534.7075
99.2900	473.4325
99.3000	524.3125
99.3100	634.2125
99.3200	635.5900
99.3300	489.2225
99.3400	610.7750
99.3500	590.1000
99.3600	554.5125
99.3700	550.0000
99.3800	564.4100
99.3900	638.7175
99.4000	664.4100
99.4100	681.0775
99.4200	654.5125
99.4300	664.4100
99.4400	724.3075
99.4500	690.1025
99.4600	568.0525
99.4700	679.6900
99.4800	555.9000
99.4900	605.3825
99.5000	587.8475
99.5100	741.8425
99.5200	636.9775
99.5300	616.6675
99.5400	631.0775
99.5500	705.3825
99.5600	630.2050
99.5700	674.3075
99.5800	654.5125
99.5900	520.3075
99.6000	672.9250
99.6100	815.2825
99.6200	703.6400
99.6300	625.6900
99.6400	659.8975
99.6500	623.4350
99.6600	544.6125
99.6700	576.5650
99.6800	626.5675
99.6900	748.6225
99.7000	824.3125
99.7100	746.8650
99.7200	618.0400
99.7300	628.8225
99.7400	633.3325
99.7500	633.3325
99.7600	647.7450
99.7700	621.1750
99.7800	616.6675
99.7900	746.3800
99.8000	723.4275
99.8100	673.4275
99.8200	637.8400
99.8300	849.5350
99.8400	782.4375
99.8500	651.3550
99.8600	604.5050
99.8700	571.1725
99.8800	624.3250
99.8900	633.3325
99.9000	532.4275
99.9100	588.7425
99.9200	600.0000
99.9300	585.5850
99.9400	496.8375
99.9500	598.6625
99.9600	659.9175
99.9700	666.6675
99.9800	666.6675
99.9900	666.6675
100.0000	666.6675
